#GEFID= 1, 1, 2
#FILEOWNER= Geotechnical Engineering B.V.
#FILEDATE= 2024, 9, 15
#PROJECTID= 2024-001, Site Investigation Project
#COLUMN= 6
#COLUMNINFO= 1, m, Penetration length, 1
#COLUMNINFO= 2, MPa, Cone resistance, 2
#COLUMNINFO= 3, MPa, Sleeve friction, 3
#COLUMNINFO= 4, %, Friction ratio, 4
#COLUMNINFO= 5, MPa, Pore pressure u2, 6
#COLUMNINFO= 6, degrees, Inclination, 8
#XYID= 31000, 154864.81, 462868.28, 0.02, 0.02
#ZID= 31000, 2.06, 0.02
#TESTID= CPT-2024-001
#STARTDATE= 2024, 9, 15
#STARTTIME= 9, 0, 0
#MEASUREMENTTEXT= 1, CPT-2024-001
#MEASUREMENTTEXT= 2, Site Investigation
#MEASUREMENTTEXT= 4, Geotechnical Engineering B.V.
#MEASUREMENTTEXT= 6, Fugro CPT Rig Model F200
#MEASUREMENTTEXT= 9, Electronic cone type E
#MEASUREMENTVAR= 1, 20.00, m, Cone penetration depth
#MEASUREMENTVAR= 2, 2.00, cm/s, Cone penetration rate
#MEASUREMENTVAR= 4, 0.00, m, Cone pre-excavated depth
#MEASUREMENTVAR= 5, 2.06, m, Ground level reference
#MEASUREMENTVAR= 6, 2.06, m, Ground water level
#MEASUREMENTVAR= 9, 0.00, m, Final depth
#MEASUREMENTVAR= 13, 10.00, cm2, Cone surface area
#MEASUREMENTVAR= 16, 0.00, m, Cone apex height
#MEASUREMENTVAR= 20, 90.00, degrees, Cone apex angle
#COLUMNVOID= 1, -9999.99
#COLUMNVOID= 2, -9999.99
#COLUMNVOID= 3, -9999.99
#COLUMNVOID= 4, -9999.99
#COLUMNVOID= 5, -9999.99
#COLUMNVOID= 6, -9999.99
#LASTSCAN= 1
#REPORTCODE= GEF-CPT-Report, 1, 1, 2
#EOH=
  0.0000     1.5492   0.057159   3.6895   0.034339   0.3273
  0.0200     0.9127   0.035743   3.9160   0.013807   1.0841
  0.0400     0.7782   0.021994   2.8261   0.024632  -1.0084
  0.0600     1.6288   0.058176   3.5716   0.000000   1.0143
  0.0800     1.1916   0.064306   5.3965   0.017911  -0.7886
  0.1000     2.0313   0.094473   4.6508   0.033556  -1.0046
  0.1200     1.5063   0.046682   3.0990   0.026338  -0.3577
  0.1400     0.9472   0.044320   4.6793   0.021134   0.0893
  0.1600     1.3882   0.049995   3.6014   0.030794  -0.0553
  0.1800     1.5904   0.071324   4.4847   0.000000   0.7461
  0.2000     1.3529   0.063359   4.6831   0.000000   0.0175
  0.2200     0.9817   0.048618   4.9524   0.000000  -0.8326
  0.2400     1.8274   0.079780   4.3657   0.038255  -0.9514
  0.2600     2.0029   0.089851   4.4860   0.000000   1.2391
  0.2800     0.9522   0.043446   4.5627   0.000000  -0.2785
  0.3000     0.8645   0.026154   3.0254   0.000000  -0.4901
  0.3200     1.3304   0.055579   4.1777   0.008916   0.6373
  0.3400     1.6535   0.056412   3.4116   0.034376  -0.2265
  0.3600     1.2567   0.059563   4.7397   0.000000  -0.9279
  0.3800     1.8007   0.057661   3.2021   0.037865   0.0145
  0.4000     0.9179   0.028961   3.1551   0.035836  -0.4153
  0.4200     1.5143   0.047031   3.1058   0.010016  -1.3602
  0.4400     1.9155   0.078406   4.0933   0.000000  -0.4547
  0.4600     0.9015   0.052062   5.7752   0.005181   1.0906
  0.4800     1.6658   0.070917   4.2571   0.038550  -0.4971
  0.5000     1.4406   0.055109   3.8255   0.018124  -0.2646
  0.5200     1.1193   0.050746   4.5339   0.007248   1.0300
  0.5400     0.5152   0.022815   4.4286   0.000873  -0.5877
  0.5600     0.6644   0.028817   4.3375   0.051848   0.2951
  0.5800     1.1724   0.053002   4.5209   0.000000   0.5662
  0.6000     1.1777   0.046273   3.9290   0.027428   1.4404
  0.6200     1.4712   0.059687   4.0569   0.010864   0.1635
  0.6400     1.3802   0.054403   3.9417   0.000000  -0.7651
  0.6600     0.6673   0.033154   4.9685   0.001523  -0.5842
  0.6800     1.1455   0.058034   5.0664   0.011577   1.1465
  0.7000     1.7518   0.056405   3.2198   0.010616  -0.1912
  0.7200     0.8632   0.043450   5.0336   0.017712  -0.9454
  0.7400     1.4781   0.052196   3.5314   0.007340  -1.3469
  0.7600     1.8178   0.064898   3.5702   0.024905  -0.8948
  0.7800     0.6047   0.028416   4.6989   0.000000   1.0973
  0.8000     0.7772   0.035620   4.5830   0.000000   0.6923
  0.8200     0.6106   0.026805   4.3897   0.012641   0.7908
  0.8400     1.6722   0.057410   3.4331   0.023062   0.3847
  0.8600     0.7191   0.039161   5.4456   0.000000   0.8030
  0.8800     1.5846   0.060662   3.8282   0.025227   1.3870
  0.9000     0.8853   0.033716   3.8083   0.025595   1.4663
  0.9200     2.0128   0.059731   2.9676   0.025469   1.2619
  0.9400     1.1494   0.043639   3.7965   0.023438   0.1423
  0.9600     1.5649   0.076536   4.8908   0.000000   0.4571
  0.9800     1.1672   0.046705   4.0013   0.000000   0.1993
  1.0000     1.6336   0.051384   3.1455   0.039768  -0.1531
  1.0200     1.9726   0.084853   4.3017   0.009845   0.8387
  1.0400     1.2751   0.037649   2.9527   0.007611   0.3608
  1.0600     1.5224   0.074520   4.8949   0.038612  -0.4226
  1.0800     0.7694   0.035137   4.5668   0.000000  -1.1016
  1.1000     1.2136   0.051256   4.2234   0.025642   0.2988
  1.1200     1.0560   0.041573   3.9370   0.000000   0.1830
  1.1400     2.0069   0.063489   3.1636   0.005362  -0.2116
  1.1600     0.7177   0.037049   5.1622   0.022484   1.4487
  1.1800     1.5836   0.071405   4.5090   0.045655   0.9739
  1.2000     2.0341   0.083891   4.1242   0.047775  -1.1521
  1.2200     1.9816   0.062714   3.1648   0.013297   1.0444
  1.2400     0.7745   0.028771   3.7149   0.053109   0.4940
  1.2600     1.1400   0.043002   3.7720   0.000000   1.1873
  1.2800     0.9496   0.034762   3.6606   0.006346   0.1717
  1.3000     1.7581   0.059562   3.3878   0.009779   0.3312
  1.3200     1.1500   0.042906   3.7309   0.003211   0.7646
  1.3400     0.7932   0.024578   3.0984   0.009022   0.5362
  1.3600     1.3389   0.040584   3.0312   0.011272   0.4126
  1.3800     0.8103   0.025700   3.1718   0.000000   1.3582
  1.4000     0.9578   0.050483   5.2709   0.017224  -0.9952
  1.4200     1.8486   0.067144   3.6321   0.000000   0.2011
  1.4400     2.0289   0.064580   3.1830   0.007894  -1.1568
  1.4600     1.2362   0.050131   4.0554   0.015089  -0.2235
  1.4800     0.9084   0.048529   5.3425   0.000000  -0.0888
  1.5000     1.4011   0.045755   3.2657   0.031910   0.0152
  1.5200     1.7661   0.077169   4.3695   0.018695   0.4215
  1.5400     1.7873   0.090822   5.0814   0.008804   1.3316
  1.5600     1.7299   0.088279   5.1032   0.001172   0.1809
  1.5800     0.6676   0.030439   4.5597   0.053887   1.0137
  1.6000     0.6396   0.034461   5.3879   0.011428  -0.7314
  1.6200     2.1644   0.079372   3.6672   0.033860   0.9078
  1.6400     1.1875   0.036461   3.0703   0.003492   1.3483
  1.6600     0.7728   0.038682   5.0052   0.000000  -0.2558
  1.6800     1.1824   0.047305   4.0007   0.000000   0.3701
  1.7000     1.5056   0.067972   4.5145   0.010646   0.2998
  1.7200     1.9978   0.071268   3.5674   0.034749   0.8745
  1.7400     1.4039   0.042368   3.0178   0.027017   0.5352
  1.7600     1.6686   0.055197   3.3080   0.006686  -0.9574
  1.7800     1.5951   0.079779   5.0015   0.028652   0.7078
  1.8000     1.3199   0.056188   4.2568   0.035161  -0.3636
  1.8200     2.0783   0.079358   3.8183   0.018265  -0.6046
  1.8400     1.9784   0.063178   3.1934   0.006189  -0.0690
  1.8600     2.0216   0.071642   3.5438   0.027535   0.0232
  1.8800     0.9121   0.026962   2.9559   0.020307  -0.4295
  1.9000     1.0471   0.035637   3.4033   0.012994  -0.4046
  1.9200     2.0722   0.101200   4.8837   0.029447  -0.4696
  1.9400     1.5472   0.063634   4.1128   0.000000  -0.4184
  1.9600     1.6143   0.052161   3.2312   0.014031  -1.2915
  1.9800     1.7575   0.059135   3.3647   0.018778  -0.1197
  2.0000     1.9936   0.061394   3.0796   0.000000  -0.1146
  2.0200     1.4545   0.067501   4.6410   0.033743   0.8363
  2.0400     1.1176   0.042879   3.8367   0.029610  -0.6341
  2.0600     2.0670   0.068937   3.3352   0.017136   0.3691
  2.0800     1.7171   0.059266   3.4515   0.019040   1.3733
  2.1000     2.0676   0.100848   4.8776   0.019608  -0.4373
  2.1200     1.2828   0.054725   4.2660   0.009281   0.1436
  2.1400     1.6664   0.055100   3.3065   0.012647  -1.1347
  2.1600     1.2634   0.061408   4.8606   0.019914   1.0893
  2.1800     1.7669   0.088509   5.0094   0.030224  -0.9326
  2.2000     1.9421   0.064190   3.3053   0.030978   1.4310
  2.2200     1.3880   0.066318   4.7780   0.061528   1.2805
  2.2400     1.4474   0.062403   4.3114   0.000000  -1.4738
  2.2600     1.8355   0.072734   3.9626   0.011059   0.0809
  2.2800     0.8855   0.026177   2.9563   0.040573  -0.9230
  2.3000     1.4957   0.068666   4.5908   0.007503   0.3947
  2.3200     0.9796   0.033118   3.3808   0.028112  -0.9207
  2.3400     1.3376   0.039667   2.9656   0.014438  -0.8210
  2.3600     0.8966   0.029830   3.3269   0.000000  -0.9427
  2.3800     1.3352   0.059810   4.4793   0.028455  -0.6393
  2.4000     0.8838   0.029120   3.2950   0.000000   1.2613
  2.4200     1.6711   0.056327   3.3707   0.019634  -0.3414
  2.4400     1.1502   0.037743   3.2815   0.027485   0.5469
  2.4600     0.6366   0.025141   3.9491   0.012930   0.2508
  2.4800     1.4335   0.064257   4.4825   0.021855   0.3205
  2.5000     1.0594   0.049143   4.6386   0.007523  -1.2468
  2.5200     1.9528   0.094177   4.8226   0.056509   0.0903
  2.5400     2.0475   0.088563   4.3254   0.000000  -1.0150
  2.5600     1.9888   0.061485   3.0916   0.018350  -0.8596
  2.5800     1.9211   0.091212   4.7478   0.012793  -0.3295
  2.6000     1.5138   0.057672   3.8096   0.042490  -0.1337
  2.6200     1.2367   0.036269   2.9328   0.014074  -0.6428
  2.6400     0.8291   0.034286   4.1355   0.032272   1.1189
  2.6600     1.9497   0.057639   2.9562   0.030025   0.5708
  2.6800     1.4730   0.058518   3.9727   0.026420  -0.3755
  2.7000     1.2558   0.044304   3.5279   0.031887   0.6302
  2.7200     1.8102   0.068015   3.7573   0.044896  -0.4551
  2.7400     1.8747   0.089838   4.7921   0.009292   0.2908
  2.7600     1.3463   0.048469   3.6002   0.017636   1.4748
  2.7800     1.9436   0.082641   4.2521   0.004375   1.4791
  2.8000     1.7788   0.094586   5.3174   0.020801   0.2305
  2.8200     1.4985   0.065454   4.3681   0.041062  -0.5240
  2.8400     1.0925   0.068876   6.3042   0.047010   1.1546
  2.8600     1.5573   0.067599   4.3408   0.014719   0.3806
  2.8800     1.5409   0.071821   4.6610   0.061646  -0.5685
  2.9000     1.1211   0.038337   3.4196   0.029902  -1.1067
  2.9200     1.4180   0.037883   2.6716   0.057478  -0.5614
  2.9400     1.7639   0.091856   5.2076   0.026913   0.3074
  2.9600     2.1353   0.076471   3.5812   0.040970   0.9478
  2.9800     2.3689   0.099227   4.1887   0.042906   1.0036
  3.0000     8.2811   0.097302   1.1750   0.060138  -1.0138
  3.0200    10.1449   0.095443   0.9408   0.029421  -1.2538
  3.0400    14.0385   0.095022   0.6769   0.055183  -1.4856
  3.0600    14.0032   0.151314   1.0806   0.067678   1.4043
  3.0800    11.9075   0.075747   0.6361   0.058475  -0.9491
  3.1000     8.2661   0.060932   0.7371   0.000000  -0.6459
  3.1200    12.3979   0.118206   0.9534   0.081250  -1.3684
  3.1400    11.8568   0.146941   1.2393   0.000000  -1.2307
  3.1600    15.0348   0.213867   1.4225   0.014786   1.3492
  3.1800    13.7953   0.176057   1.2762   0.037835  -0.3242
  3.2000    13.2070   0.077128   0.5840   0.045892   0.1844
  3.2200    12.4724   0.112706   0.9036   0.056720  -1.3334
  3.2400    13.6644   0.137049   1.0030   0.000000  -1.3170
  3.2600    10.6276   0.088315   0.8310   0.000000  -0.3476
  3.2800    10.5324   0.076469   0.7260   0.000000   0.1786
  3.3000    13.0243   0.092337   0.7090   0.086741   0.2261
  3.3200    10.2554   0.128801   1.2559   0.000000   0.4402
  3.3400     8.6013   0.100545   1.1690   0.032763   1.0335
  3.3600    10.5726   0.155562   1.4714   0.145825  -1.0212
  3.3800    11.1355   0.072884   0.6545   0.035012  -0.5803
  3.4000    11.0810   0.152893   1.3798   0.027460  -1.4587
  3.4200     9.5977   0.141666   1.4760   0.068615  -1.0476
  3.4400    13.8110   0.134852   0.9764   0.043554  -0.5316
  3.4600    14.5977   0.134477   0.9212   0.000000   1.3081
  3.4800     9.0710   0.127965   1.4107   0.031295  -0.0017
  3.5000    14.7911   0.193766   1.3100   0.000000   0.9694
  3.5200     9.6299   0.107408   1.1154   0.064579   0.7255
  3.5400     9.7986   0.121710   1.2421   0.052255   0.0782
  3.5600     8.6279   0.077906   0.9030   0.036366   0.4329
  3.5800     8.3978   0.043632   0.5196   0.000000   0.3866
  3.6000    10.3637   0.138172   1.3332   0.098588  -1.1743
  3.6200    13.9250   0.176152   1.2650   0.000000   0.8912
  3.6400    14.0223   0.140794   1.0041   0.062678   0.4090
  3.6600     8.6811   0.084917   0.9782   0.087894  -0.1864
  3.6800    10.4641   0.074340   0.7104   0.000000   1.3028
  3.7000    11.8045   0.161785   1.3705   0.131464   0.8965
  3.7200     9.3384   0.121353   1.2995   0.054314   1.4212
  3.7400    13.8389   0.159185   1.1503   0.090895   1.0573
  3.7600    12.6474   0.097306   0.7694   0.026616   1.1499
  3.7800     8.3801   0.126079   1.5045   0.055840  -0.1428
  3.8000     9.8484   0.064150   0.6514   0.075638  -1.3175
  3.8200    12.1389   0.085227   0.7021   0.060288  -0.0611
  3.8400     9.1751   0.110376   1.2030   0.110822  -1.0544
  3.8600    12.5514   0.136059   1.0840   0.136391   0.4881
  3.8800     9.3943   0.090630   0.9647   0.093938  -0.7346
  3.9000     9.1071   0.093044   1.0217   0.005298   1.0920
  3.9200     9.4065   0.056107   0.5965   0.008216  -0.9269
  3.9400    12.5412   0.100214   0.7991   0.007858  -0.3094
  3.9600    13.1062   0.153833   1.1737   0.070220   1.2758
  3.9800    14.3153   0.195540   1.3660   0.000000  -1.4458
  4.0000     8.6311   0.089465   1.0365   0.000000  -0.1058
  4.0200    10.8484   0.082357   0.7592   0.025578  -0.3363
  4.0400    14.9786   0.136412   0.9107   0.030581  -0.6963
  4.0600    15.2016   0.100450   0.6608   0.002576  -0.5784
  4.0800    12.4495   0.155603   1.2499   0.045354  -1.1549
  4.1000    14.9982   0.097870   0.6525   0.183262  -0.5469
  4.1200    12.3252   0.073687   0.5979   0.061772  -0.1995
  4.1400    14.1442   0.129420   0.9150   0.000000  -0.5608
  4.1600    10.3936   0.155103   1.4923   0.068810   0.7918
  4.1800     9.4820   0.092555   0.9761   0.000000  -0.0101
  4.2000    11.4984   0.162226   1.4109   0.013500  -0.9319
  4.2200    10.9510   0.108004   0.9862   0.041286   0.1589
  4.2400    10.5901   0.094647   0.8937   0.069117   0.3109
  4.2600    13.2204   0.153415   1.1604   0.131271  -0.9058
  4.2800    11.5724   0.126103   1.0897   0.065161   1.2265
  4.3000    11.3436   0.142274   1.2542   0.052594  -0.1208
  4.3200    13.6486   0.155168   1.1369   0.110171   0.2503
  4.3400    14.9104   0.215487   1.4452   0.033235  -0.7804
  4.3600    14.3638   0.153340   1.0675   0.000000  -1.4415
  4.3800     9.6285   0.103667   1.0767   0.028179  -0.1732
  4.4000     9.9088   0.133875   1.3511   0.012179  -0.6292
  4.4200    14.4193   0.206170   1.4298   0.034623   1.0186
  4.4400    10.7503   0.161963   1.5066   0.121119  -0.4876
  4.4600    13.3926   0.160095   1.1954   0.031859   1.1513
  4.4800    10.1736   0.088686   0.8717   0.064548   1.0480
  4.5000    10.4120   0.102362   0.9831   0.009123   0.4855
  4.5200    10.8390   0.136620   1.2604   0.000000  -0.9955
  4.5400    15.0209   0.159631   1.0627   0.042980  -1.3171
  4.5600    11.0696   0.143686   1.2980   0.081600   0.1231
  4.5800    12.8926   0.174932   1.3568   0.116966  -0.1115
  4.6000    13.6438   0.078589   0.5760   0.079871   1.1457
  4.6200    11.5738   0.102200   0.8830   0.046552   1.0538
  4.6400    13.9241   0.149799   1.0758   0.152870   0.0941
  4.6600    11.9332   0.117231   0.9824   0.061168   0.6792
  4.6800    12.5918   0.164436   1.3059   0.035388  -1.0683
  4.7000    12.6596   0.110553   0.8733   0.081316   0.4584
  4.7200    13.8747   0.111918   0.8066   0.126514  -0.8211
  4.7400    13.7170   0.191470   1.3959   0.051453  -1.2554
  4.7600    10.2530   0.103653   1.0110   0.132297  -0.7299
  4.7800    14.2693   0.195738   1.3717   0.070460   1.3454
  4.8000    15.3780   0.109389   0.7113   0.105487  -0.8173
  4.8200    15.7061   0.134420   0.8558   0.051494   1.2003
  4.8400    10.2808   0.120284   1.1700   0.065115   0.1117
  4.8600    13.5900   0.192293   1.4150   0.000000  -1.4394
  4.8800    12.1431   0.102385   0.8432   0.026219  -0.6549
  4.9000     9.4916   0.074227   0.7820   0.015017   0.1434
  4.9200    13.4907   0.077763   0.5764   0.003621   1.2469
  4.9400    13.6810   0.074588   0.5452   0.020237  -0.5689
  4.9600     9.8671   0.056118   0.5687   0.013393  -1.3373
  4.9800    11.5301   0.099171   0.8601   0.013364   0.8067
  5.0000     9.9724   0.083067   0.8330   0.086147  -0.9836
  5.0200     9.3935   0.052659   0.5606   0.018824  -0.5238
  5.0400     9.5080   0.057375   0.6034   0.045591  -0.5324
  5.0600    14.0811   0.181274   1.2874   0.081887  -0.9576
  5.0800    13.9204   0.098016   0.7041   0.000000   0.1567
  5.1000    10.3961   0.114968   1.1059   0.000000  -0.3185
  5.1200    10.3796   0.069495   0.6695   0.000000  -0.7057
  5.1400    10.3501   0.155371   1.5011   0.136432   1.3991
  5.1600    10.3830   0.057272   0.5516   0.042633   0.8456
  5.1800    14.6044   0.095039   0.6508   0.007877   0.2773
  5.2000     9.1062   0.089505   0.9829   0.114456  -0.0550
  5.2200    13.1105   0.130137   0.9926   0.100909   0.3572
  5.2400    14.2008   0.086240   0.6073   0.061734  -0.8070
  5.2600    14.9729   0.125778   0.8400   0.000000  -0.3417
  5.2800    15.4124   0.214405   1.3911   0.075460   0.2566
  5.3000    12.4488   0.097079   0.7798   0.000000  -1.2890
  5.3200     9.8885   0.094321   0.9538   0.001009   0.0455
  5.3400    12.1466   0.147217   1.2120   0.007421  -1.4313
  5.3600    12.9467   0.076757   0.5929   0.095919   0.9668
  5.3800    12.2975   0.150426   1.2232   0.084915   1.0423
  5.4000    12.3955   0.133219   1.0747   0.099561   1.0190
  5.4200     9.8010   0.107662   1.0985   0.028646  -1.1123
  5.4400    14.9841   0.079329   0.5294   0.053378   0.4364
  5.4600    12.3129   0.135514   1.1006   0.074200  -0.5461
  5.4800    15.6701   0.173166   1.1051   0.099668   0.1666
  5.5000    11.7563   0.061135   0.5200   0.039372  -0.7743
  5.5200    14.5694   0.158266   1.0863   0.099471   1.4422
  5.5400    11.7855   0.083402   0.7077   0.086439   1.2911
  5.5600    12.4131   0.159452   1.2845   0.123682  -0.8002
  5.5800    13.1305   0.107090   0.8156   0.011454   0.4027
  5.6000    14.3365   0.132842   0.9266   0.016890   0.0478
  5.6200    13.3363   0.112304   0.8421   0.003714   0.7843
  5.6400    13.8739   0.171942   1.2393   0.070823  -0.3864
  5.6600    13.0325   0.131934   1.0123   0.000000   0.6941
  5.6800     9.9202   0.066020   0.6655   0.073502   0.3736
  5.7000     9.5362   0.096226   1.0091   0.032195   0.6536
  5.7200    15.9274   0.215408   1.3524   0.084229   0.8247
  5.7400    14.3274   0.139324   0.9724   0.096217   0.9766
  5.7600    12.8846   0.083401   0.6473   0.087579  -0.5298
  5.7800    15.9910   0.218745   1.3679   0.004200   0.4422
  5.8000    14.4486   0.168272   1.1646   0.051989   0.2091
  5.8200     9.5620   0.112872   1.1804   0.054623  -0.2524
  5.8400    13.1028   0.081882   0.6249   0.057557   0.5273
  5.8600    13.1617   0.177346   1.3474   0.029436   1.3370
  5.8800     9.5017   0.098885   1.0407   0.077216  -1.3820
  5.9000    14.2979   0.196172   1.3720   0.000000  -0.1892
  5.9200    13.6380   0.146343   1.0731   0.017190   0.7183
  5.9400    14.2014   0.173710   1.2232   0.114414  -0.8195
  5.9600    12.8695   0.148464   1.1536   0.000000  -0.8343
  5.9800    10.6902   0.069114   0.6465   0.008694  -0.4104
  6.0000    11.8317   0.085118   0.7194   0.080343   0.2663
  6.0200    11.9600   0.068308   0.5711   0.000033  -0.8404
  6.0400    14.3029   0.216167   1.5114   0.000000   0.5475
  6.0600    11.3129   0.060821   0.5376   0.051638   1.4056
  6.0800    12.4576   0.104724   0.8407   0.118830  -0.5022
  6.1000    12.6769   0.076270   0.6016   0.011971   0.1842
  6.1200    11.6543   0.082142   0.7048   0.113411   0.3276
  6.1400    10.3037   0.098710   0.9580   0.007010   1.2469
  6.1600    15.0058   0.160763   1.0713   0.199980  -1.2477
  6.1800    15.2179   0.213587   1.4035   0.000000  -1.1282
