#GEFID= 1, 1, 2
#FILEOWNER= Geotechnical Engineering B.V.
#FILEDATE= 2024, 9, 15
#PROJECTID= 2024-001, Site Investigation Project
#COLUMN= 6
#COLUMNINFO= 1, m, Penetration length, 1
#COLUMNINFO= 2, MPa, Cone resistance, 2
#COLUMNINFO= 3, MPa, Sleeve friction, 3
#COLUMNINFO= 4, %, Friction ratio, 4
#COLUMNINFO= 5, MPa, Pore pressure u2, 6
#COLUMNINFO= 6, degrees, Inclination, 8
#XYID= 31000, 154977.34, 462866.57, 0.02, 0.02
#ZID= 31000, 3.13, 0.02
#TESTID= CPT-2024-003
#STARTDATE= 2024, 9, 15
#STARTTIME= 14, 0, 0
#MEASUREMENTTEXT= 1, CPT-2024-003
#MEASUREMENTTEXT= 2, Site Investigation
#MEASUREMENTTEXT= 4, Geotechnical Engineering B.V.
#MEASUREMENTTEXT= 6, Fugro CPT Rig Model F200
#MEASUREMENTTEXT= 9, Electronic cone type E
#MEASUREMENTVAR= 1, 20.00, m, Cone penetration depth
#MEASUREMENTVAR= 2, 2.00, cm/s, Cone penetration rate
#MEASUREMENTVAR= 4, 0.00, m, Cone pre-excavated depth
#MEASUREMENTVAR= 5, 3.13, m, Ground level reference
#MEASUREMENTVAR= 6, 3.13, m, Ground water level
#MEASUREMENTVAR= 9, 0.00, m, Final depth
#MEASUREMENTVAR= 13, 10.00, cm2, Cone surface area
#MEASUREMENTVAR= 16, 0.00, m, Cone apex height
#MEASUREMENTVAR= 20, 90.00, degrees, Cone apex angle
#COLUMNVOID= 1, -9999.99
#COLUMNVOID= 2, -9999.99
#COLUMNVOID= 3, -9999.99
#COLUMNVOID= 4, -9999.99
#COLUMNVOID= 5, -9999.99
#COLUMNVOID= 6, -9999.99
#LASTSCAN= 1
#REPORTCODE= GEF-CPT-Report, 1, 1, 2
#EOH=
  0.0000     1.2831   0.042649   3.3239   0.000000  -1.4393
  0.0200     0.7966   0.033374   4.1897   0.002516   1.4137
  0.0400     1.5208   0.081795   5.3783   0.012402  -0.1704
  0.0600     0.8463   0.047484   5.6105   0.000000  -1.4632
  0.0800     1.0716   0.053492   4.9919   0.000000   1.0000
  0.1000     1.6559   0.072617   4.3853   0.000000  -0.2811
  0.1200     1.9339   0.060796   3.1437   0.000000   0.7062
  0.1400     2.1171   0.061488   2.9043   0.000000   0.0405
  0.1600     0.7521   0.023116   3.0736   0.001343   0.3339
  0.1800     0.9981   0.038747   3.8819   0.013031   0.9983
  0.2000     1.0653   0.057410   5.3891   0.000000  -0.9296
  0.2200     0.7350   0.021761   2.9607   0.003128  -0.8363
  0.2400     1.5430   0.066348   4.3000   0.023300  -0.5873
  0.2600     1.2482   0.038590   3.0916   0.000109  -1.0695
  0.2800     1.3288   0.057973   4.3626   0.006302   0.2172
  0.3000     1.4624   0.050145   3.4290   0.026589   0.2389
  0.3200     1.0356   0.026461   2.5552   0.014213  -0.9215
  0.3400     1.9853   0.064993   3.2737   0.036134   0.9137
  0.3600     1.8765   0.072451   3.8610   0.003122   0.7923
  0.3800     1.3329   0.050193   3.7656   0.013326   0.1452
  0.4000     0.9251   0.036220   3.9151   0.003608  -0.6547
  0.4200     1.9810   0.081435   4.1107   0.012696  -1.2108
  0.4400     0.6004   0.022713   3.7827   0.010747  -1.0288
  0.4600     1.8018   0.054361   3.0170   0.011138   0.3336
  0.4800     1.0174   0.052130   5.1237   0.023000   0.5314
  0.5000     1.0014   0.040554   4.0495   0.000000  -0.6248
  0.5200     1.2650   0.066962   5.2933   0.000000   0.2300
  0.5400     1.3239   0.049257   3.7205   0.026470  -0.4475
  0.5600     1.3503   0.041835   3.0983   0.002688   1.1790
  0.5800     2.1322   0.093336   4.3775   0.000000  -0.7311
  0.6000     0.8197   0.032800   4.0014   0.000000   1.1885
  0.6200     1.5269   0.064855   4.2474   0.000000  -1.4046
  0.6400     1.6055   0.078590   4.8952   0.020627   1.3023
  0.6600     0.7460   0.038561   5.1690   0.012458  -0.9286
  0.6800     0.8482   0.036998   4.3619   0.006916  -0.0699
  0.7000     1.1352   0.033968   2.9921   0.017672   0.1557
  0.7200     0.5867   0.023172   3.9494   0.000000  -0.1375
  0.7400     0.9380   0.032208   3.4337   0.004399  -1.3581
  0.7600     1.6425   0.065555   3.9912   0.000000   1.2250
  0.7800     1.5962   0.061937   3.8803   0.020904   0.1274
  0.8000     1.8046   0.069069   3.8275   0.027424   1.1245
  0.8200     1.0674   0.054324   5.0892   0.017802  -1.1186
  0.8400     1.4335   0.048156   3.3594   0.000000  -0.1640
  0.8600     1.6517   0.051726   3.1317   0.002826  -1.3533
  0.8800     1.4605   0.049019   3.3563   0.000000  -0.4460
  0.9000     2.1761   0.101493   4.6639   0.005371   0.3408
  0.9200     0.8460   0.038687   4.5728   0.025651  -0.2954
  0.9400     2.0836   0.070816   3.3988   0.000000   0.2854
  0.9600     1.0747   0.038590   3.5909   0.000000   0.0316
  0.9800     1.9356   0.072065   3.7231   0.007967  -0.6683
  1.0000     0.8372   0.029617   3.5377   0.009413  -0.7249
  1.0200     1.6991   0.088730   5.2223   0.027806  -1.1394
  1.0400     1.2588   0.063846   5.0719   0.009556   1.4017
  1.0600     1.1328   0.039236   3.4637   0.007852  -0.4876
  1.0800     1.0774   0.052625   4.8844   0.000000  -1.0296
  1.1000     1.9008   0.084897   4.4665   0.024806   1.1792
  1.1200     2.0827   0.094934   4.5581   0.000000   0.0826
  1.1400     1.0717   0.047713   4.4520   0.023014   0.4721
  1.1600     1.2527   0.071011   5.6686   0.039750  -0.6203
  1.1800     0.7700   0.034980   4.5428   0.005797  -0.9185
  1.2000     0.9038   0.027951   3.0927   0.011156   0.8604
  1.2200     1.9727   0.088159   4.4690   0.020734   0.8225
  1.2400     1.4848   0.045870   3.0893   0.000000   0.9784
  1.2600     0.9023   0.025322   2.8064   0.000000   0.9606
  1.2800     1.4236   0.053284   3.7428   0.043430  -1.1134
  1.3000     2.0243   0.095875   4.7362   0.000000   0.4822
  1.3200     2.1666   0.068559   3.1644   0.014267  -0.8810
  1.3400     1.3435   0.063785   4.7477   0.000000   0.4184
  1.3600     1.0991   0.052113   4.7416   0.001016   1.3123
  1.3800     1.3654   0.055331   4.0522   0.021622   0.0374
  1.4000     1.2912   0.064209   4.9730   0.023616  -0.3887
  1.4200     1.9586   0.082805   4.2278   0.003183  -0.4984
  1.4400     2.0867   0.075795   3.6322   0.029591  -1.2949
  1.4600     1.7332   0.077621   4.4785   0.006466  -1.1830
  1.4800     0.9660   0.041688   4.3156   0.003006   1.2050
  1.5000     1.1559   0.051849   4.4855   0.040595   0.0275
  1.5200     1.6890   0.078280   4.6348   0.030456   0.2252
  1.5400     1.3273   0.050726   3.8218   0.018102  -0.4068
  1.5600     1.8805   0.096307   5.1213   0.000088   1.2335
  1.5800     1.0484   0.027809   2.6524   0.024311  -0.7509
  1.6000     0.7550   0.030810   4.0808   0.045312   0.0809
  1.6200     0.7263   0.030502   4.1994   0.024379   0.5506
  1.6400     1.2821   0.049330   3.8476   0.021999  -1.0872
  1.6600     1.1820   0.050631   4.2834   0.016999   1.3187
  1.6800     1.1056   0.040129   3.6296   0.008344  -1.0642
  1.7000     1.4676   0.048500   3.3047   0.022214  -1.3384
  1.7200     0.6563   0.023563   3.5904   0.001104  -1.1770
  1.7400     1.3350   0.063263   4.7389   0.013002  -0.2106
  1.7600     1.1329   0.041513   3.6642   0.034260   0.4610
  1.7800     1.1300   0.051246   4.5351   0.004314   1.1887
  1.8000     1.7621   0.067131   3.8098   0.007726  -0.3650
  1.8200     2.2084   0.082069   3.7162   0.036800  -1.2027
  1.8400     1.2754   0.044044   3.4533   0.000000   1.0072
  1.8600     1.1900   0.045082   3.7883   0.013500  -0.0085
  1.8800     0.6594   0.044061   6.6824   0.028885   0.4716
  1.9000     1.9790   0.071338   3.6047   0.037305   0.3881
  1.9200     1.8026   0.072973   4.0483   0.023844   1.3234
  1.9400     1.2115   0.051834   4.2784   0.005981  -1.3198
  1.9600     2.0430   0.095663   4.6826   0.020573   0.8960
  1.9800     1.9294   0.098304   5.0951   0.040741   0.6919
  2.0000     0.9984   0.051220   5.1301   0.000000  -1.2931
  2.0200     1.9204   0.071653   3.7311   0.000000  -0.6804
  2.0400     0.7948   0.028315   3.5626   0.021676   0.7994
  2.0600     1.4246   0.056093   3.9375   0.003029   1.1523
  2.0800     0.8693   0.030064   3.4583   0.015781  -0.4001
  2.1000     0.9875   0.040995   4.1513   0.000000  -0.8382
  2.1200     1.4714   0.045388   3.0848   0.019172   1.1014
  2.1400     1.0280   0.040232   3.9137   0.000000   1.2510
  2.1600     0.9207   0.029453   3.1990   0.006310  -1.2955
  2.1800     1.3566   0.058905   4.3421   0.000000  -0.9240
  2.2000     0.7871   0.026267   3.3374   0.057902  -1.0758
  2.2200     0.9002   0.035703   3.9661   0.041839   0.8081
  2.2400     2.0927   0.064343   3.0747   0.012323   0.5050
  2.2600     1.6771   0.061960   3.6944   0.011793  -0.0784
  2.2800     0.7688   0.023572   3.0659   0.018754  -1.3257
  2.3000     1.8673   0.055088   2.9501   0.000000  -0.0492
  2.3200     1.0337   0.047096   4.5560   0.028769  -1.1497
  2.3400     2.0272   0.100275   4.9465   0.028740   1.4871
  2.3600     0.7717   0.036352   4.7109   0.008980   0.2676
  2.3800     2.1591   0.079584   3.6861   0.035014   0.9546
  2.4000     1.7845   0.071231   3.9916   0.053565  -1.2979
  2.4200     2.0601   0.098838   4.7979   0.013617   1.4285
  2.4400     1.3242   0.048560   3.6670   0.027108   1.3688
  2.4600     1.4396   0.051086   3.5485   0.052747  -0.0508
  2.4800     2.0357   0.093928   4.6139   0.000000   0.3484
  2.5000     1.5288   0.060034   3.9268   0.002530   0.9775
  2.5200     1.2341   0.043675   3.5391   0.020832  -0.5688
  2.5400     1.5688   0.069218   4.4121   0.051617   0.9079
  2.5600     1.5673   0.064863   4.1386   0.005393   0.7820
  2.5800     1.8924   0.092516   4.8887   0.007051   0.5248
  2.6000     0.9625   0.039310   4.0841   0.087070  -0.8373
  2.6200     0.9709   0.037700   3.8831   0.038689  -0.8666
  2.6400     1.7336   0.067787   3.9103   0.051925   0.2838
  2.6600     1.7777   0.063287   3.5600   0.024726   0.8777
  2.6800     1.5013   0.053105   3.5372   0.035823  -1.3796
  2.7000     2.2612   0.085343   3.7743   0.030927  -0.1986
  2.7200     1.6214   0.078105   4.8171   0.013204   0.2790
  2.7400     2.1927   0.090201   4.1137   0.020817  -1.4402
  2.7600     1.1659   0.044041   3.7773   0.000000   0.5157
  2.7800     1.7867   0.086204   4.8249   0.086859  -0.8916
  2.8000     2.0944   0.075289   3.5947   0.007273   0.4797
  2.8200     1.6480   0.050881   3.0874   0.037630  -1.3761
  2.8400     1.1604   0.043991   3.7909   0.031793  -1.4793
  2.8600     2.1149   0.084162   3.9794   0.023096  -0.4192
  2.8800     0.8262   0.027550   3.3347   0.019218   0.6469
  2.9000     1.3240   0.052166   3.9400   0.013774   0.2411
  2.9200     1.0731   0.037413   3.4864   0.007258  -1.2735
  2.9400     2.2217   0.100689   4.5320   0.049541  -0.8510
  2.9600     2.1158   0.079641   3.7642   0.027216   0.9262
  2.9800     1.4530   0.057177   3.9352   0.001059   1.2135
  3.0000    12.4150   0.107838   0.8686   0.065535   0.2280
  3.0200    12.8623   0.174434   1.3562   0.019382  -0.7444
  3.0400    13.1060   0.187010   1.4269   0.032315  -1.3029
  3.0600    13.9274   0.200689   1.4410   0.024280   1.4544
  3.0800    14.8399   0.169048   1.1391   0.056172   0.1794
  3.1000    14.0794   0.195864   1.3911   0.004488  -0.0220
  3.1200    10.6031   0.134583   1.2693   0.000000   0.2633
  3.1400     9.7924   0.056753   0.5796   0.000000   1.1085
  3.1600     9.9269   0.118727   1.1960   0.018963  -0.5420
  3.1800    10.1170   0.079193   0.7828   0.085195   1.3048
  3.2000     8.1801   0.076084   0.9301   0.058402   1.2354
  3.2200    11.2256   0.071121   0.6336   0.043104  -1.4716
  3.2400    13.7608   0.164342   1.1943   0.160726   0.1509
  3.2600    11.1765   0.132974   1.1898   0.089603  -1.1172
  3.2800    13.2551   0.164794   1.2432   0.070674   0.3503
  3.3000    11.1227   0.073226   0.6583   0.027220   1.2265
  3.3200     9.9030   0.063128   0.6375   0.050138  -0.5928
  3.3400    11.5893   0.131855   1.1377   0.000000  -0.4628
  3.3600    10.4147   0.053723   0.5158   0.000000  -1.0966
  3.3800    13.5378   0.121517   0.8976   0.044290   0.3148
  3.4000    13.8245   0.178754   1.2930   0.053100   1.1861
  3.4200    13.1549   0.168210   1.2787   0.017810   0.7324
  3.4400    14.6126   0.153477   1.0503   0.033723  -1.3061
  3.4600    10.3390   0.059757   0.5780   0.002481   1.0581
  3.4800    13.4881   0.146423   1.0856   0.102385  -0.8598
  3.5000     8.9930   0.118817   1.3212   0.025282  -0.0330
  3.5200    14.6084   0.113810   0.7791   0.041392  -1.1422
  3.5400     9.9922   0.051235   0.5127   0.027463  -1.3400
  3.5600    15.0928   0.128247   0.8497   0.019791  -1.0602
  3.5800     8.6991   0.116405   1.3381   0.022098  -0.8729
  3.6000     9.1246   0.097296   1.0663   0.000000   0.6982
  3.6200     9.0608   0.075097   0.8288   0.000000   0.0618
  3.6400    14.8232   0.120760   0.8147   0.086222   1.2112
  3.6600    13.0484   0.171786   1.3165   0.036255  -0.8061
  3.6800    14.4353   0.082479   0.5714   0.015227   0.3277
  3.7000    13.7883   0.104565   0.7584   0.051854  -0.0246
  3.7200    10.8429   0.157181   1.4496   0.000000  -0.4969
  3.7400    11.0308   0.090803   0.8232   0.039084   0.5792
  3.7600    10.1180   0.148605   1.4687   0.114600  -0.0780
  3.7800     9.2716   0.067452   0.7275   0.109774   0.9935
  3.8000    13.1265   0.148515   1.1314   0.000000   1.2050
  3.8200    14.9776   0.091457   0.6106   0.019724  -0.4013
  3.8400    12.5359   0.093367   0.7448   0.000000  -1.4803
  3.8600    13.0226   0.095506   0.7334   0.091973   0.3049
  3.8800    13.8144   0.083295   0.6030   0.000000   0.8920
  3.9000    11.3713   0.149130   1.3115   0.153475   1.3468
  3.9200    14.0716   0.176896   1.2571   0.000000  -0.9930
  3.9400    10.5850   0.140479   1.3272   0.000000  -0.4018
  3.9600     9.2771   0.067432   0.7269   0.030193   0.1012
  3.9800     9.2729   0.068244   0.7359   0.018820  -1.4963
  4.0000    10.7824   0.077091   0.7150   0.000000  -0.1227
  4.0200    10.7186   0.064877   0.6053   0.000000   1.0007
  4.0400     9.2317   0.101732   1.1020   0.109082  -1.4854
  4.0600    10.2829   0.106845   1.0391   0.021993  -0.5145
  4.0800    10.6121   0.125158   1.1794   0.095999   1.0275
  4.1000    11.6566   0.124314   1.0665   0.072332   0.1158
  4.1200     9.6070   0.136116   1.4168   0.071126   0.1434
  4.1400    13.4373   0.084463   0.6286   0.000000   0.5017
  4.1600    14.7526   0.180512   1.2236   0.084358  -0.2692
  4.1800     9.2040   0.087717   0.9530   0.000000  -0.6839
  4.2000     9.4018   0.107105   1.1392   0.000000  -0.8605
  4.2200     8.9058   0.103213   1.1590   0.058779   0.4420
  4.2400    10.1655   0.147215   1.4482   0.025979  -1.4932
  4.2600    15.1949   0.082239   0.5412   0.013424   0.4472
  4.2800     9.5324   0.085722   0.8993   0.068474   0.6213
  4.3000     9.3049   0.093145   1.0010   0.020429   0.8501
  4.3200     8.9962   0.089874   0.9990   0.023794  -0.4967
  4.3400    13.1100   0.098465   0.7511   0.043432  -0.3378
  4.3600    12.1542   0.107203   0.8820   0.063889  -1.1539
  4.3800    10.3143   0.127083   1.2321   0.101302  -0.9689
  4.4000    15.4597   0.168943   1.0928   0.127417  -0.3549
  4.4200    12.4402   0.173642   1.3958   0.090813   1.3206
  4.4400     9.9603   0.082778   0.8311   0.089293  -1.3065
  4.4600    14.8278   0.129310   0.8721   0.000000  -0.8338
  4.4800    11.2122   0.135377   1.2074   0.002678  -1.0317
  4.5000    10.9746   0.057063   0.5200   0.001153  -1.4556
  4.5200    12.4169   0.164316   1.3233   0.050657   0.7008
  4.5400    11.8127   0.157388   1.3324   0.000000  -1.1889
  4.5600    13.4849   0.180660   1.3397   0.000000  -1.1233
  4.5800    10.8121   0.144892   1.3401   0.092774   1.1852
  4.6000    14.3348   0.143333   0.9999   0.001952  -0.0171
  4.6200    13.8224   0.178712   1.2929   0.024509  -0.6036
  4.6400    13.7817   0.113942   0.8268   0.000000  -0.7837
  4.6600     8.8396   0.131683   1.4897   0.048924  -0.3238
  4.6800    13.8470   0.193485   1.3973   0.006730  -0.6708
  4.7000     9.2164   0.082668   0.8970   0.049623   0.5536
  4.7200    15.6701   0.231892   1.4798   0.106688  -0.8622
  4.7400    12.2188   0.089675   0.7339   0.025294  -0.7318
  4.7600    12.1035   0.123210   1.0180   0.044542   0.1001
  4.7800    14.3686   0.208541   1.4514   0.045568   0.1315
  4.8000     8.9506   0.097497   1.0893   0.041063  -0.1510
  4.8200    13.1001   0.135529   1.0346   0.064627   0.1304
  4.8400    15.1993   0.098584   0.6486   0.039170   1.0974
  4.8600     9.6714   0.080066   0.8279   0.080402  -0.5879
  4.8800    15.0080   0.088937   0.5926   0.094316  -0.6722
  4.9000    15.2418   0.227221   1.4908   0.083037   0.5463
  4.9200    10.6661   0.089654   0.8406   0.000000  -0.7449
  4.9400     9.2330   0.085799   0.9293   0.060746   1.0894
  4.9600    13.8093   0.150499   1.0898   0.025105  -0.8278
  4.9800    12.9339   0.083474   0.6454   0.043445   0.1354
  5.0000    12.0646   0.065321   0.5414   0.047669   0.6287
  5.0200    14.8976   0.089405   0.6001   0.032227   0.3635
  5.0400    11.4914   0.078693   0.6848   0.000000   0.9131
  5.0600     9.9393   0.092884   0.9345   0.079583  -0.0684
  5.0800    10.6313   0.153581   1.4446   0.121704   1.1344
  5.1000     9.9929   0.112231   1.1231   0.043704  -0.1529
  5.1200    13.1521   0.132064   1.0041   0.042373   1.2294
  5.1400    15.3236   0.165310   1.0788   0.020709  -0.3021
  5.1600    15.7950   0.142700   0.9035   0.050928   0.7291
  5.1800    11.2960   0.140588   1.2446   0.129634   0.4311
  5.2000    11.5597   0.101201   0.8755   0.097104   1.4570
  5.2200    13.4968   0.072379   0.5363   0.000000  -0.3881
  5.2400    12.6677   0.126661   0.9999   0.071680  -0.6445
  5.2600    11.4755   0.109953   0.9582   0.042696   1.0785
  5.2800    13.7040   0.186998   1.3646   0.074032  -1.2473
  5.3000    15.5678   0.107062   0.6877   0.000000  -0.7372
  5.3200    10.8232   0.095538   0.8827   0.083041   1.3683
  5.3400    14.7101   0.212234   1.4428   0.036812  -0.3893
  5.3600    15.9163   0.181101   1.1378   0.062610   1.4069
  5.3800    12.0646   0.176852   1.4659   0.104217  -1.0970
  5.4000    14.3924   0.140437   0.9758   0.091348   0.4747
  5.4200    14.0829   0.119448   0.8482   0.055527   0.3048
  5.4400    14.6584   0.172997   1.1802   0.005271  -0.6789
  5.4600    11.0825   0.076644   0.6916   0.061055   1.1627
  5.4800    10.5397   0.146619   1.3911   0.097943  -1.2828
  5.5000    11.0000   0.143631   1.3057   0.071184   1.4272
  5.5200    11.4881   0.065640   0.5714   0.027742  -0.9279
  5.5400    13.6471   0.136724   1.0019   0.091795   0.2262
  5.5600    12.2133   0.067919   0.5561   0.067374  -0.8119
  5.5800    13.4004   0.167844   1.2525   0.127332   0.1020
  5.6000    11.0088   0.097112   0.8821   0.010898   0.2354
  5.6200    11.0741   0.076422   0.6901   0.039505  -1.3669
  5.6400    15.7576   0.099240   0.6298   0.000000  -0.0810
  5.6600    10.0101   0.085985   0.8590   0.000000  -0.2928
  5.6800     9.6146   0.078089   0.8122   0.129253   0.2783
  5.7000    15.7507   0.113097   0.7180   0.137965  -0.3898
  5.7200    15.3894   0.212846   1.3831   0.000000   1.0975
  5.7400    11.7950   0.171648   1.4553   0.081462   0.1922
  5.7600    13.3464   0.084876   0.6359   0.110925  -1.1163
  5.7800    12.7780   0.108097   0.8460   0.064917  -1.1362
  5.8000    14.3830   0.178586   1.2416   0.000000  -0.1035
  5.8200    10.1587   0.060813   0.5986   0.026382  -1.4228
  5.8400    15.2992   0.093516   0.6113   0.026476   0.4475
  5.8600    16.1988   0.190016   1.1730   0.111260   1.3975
  5.8800    11.6860   0.117972   1.0095   0.078014   0.7312
  5.9000    12.1065   0.133221   1.1004   0.051350   0.2024
  5.9200    12.9172   0.111494   0.8631   0.000487   0.0876
  5.9400    14.5952   0.216429   1.4829   0.029751   1.3710
  5.9600    13.3051   0.095842   0.7203   0.021889  -1.3282
  5.9800    12.9902   0.110758   0.8526   0.082852  -0.7963
  6.0000     9.9778   0.125974   1.2625   0.054316  -0.1818
  6.0200    14.1567   0.190918   1.3486   0.000000  -0.6395
  6.0400    11.6604   0.162874   1.3968   0.022211  -0.1805
  6.0600    12.5363   0.158728   1.2662   0.004383  -0.0278
  6.0800     9.6323   0.111478   1.1573   0.122315  -0.7097
  6.1000    10.0604   0.107687   1.0704   0.140062  -1.4741
  6.1200    13.7781   0.170396   1.2367   0.171320  -1.4330
  6.1400    11.7784   0.171171   1.4533   0.013953  -1.3197
  6.1600    15.7981   0.089695   0.5678   0.000000  -0.6768
  6.1800     9.5495   0.113563   1.1892   0.020034  -0.3662
