#GEFID= 1, 1, 2
#FILEOWNER= Geotechnical Engineering B.V.
#FILEDATE= 2024, 9, 16
#PROJECTID= 2024-001, Site Investigation Project
#COLUMN= 6
#COLUMNINFO= 1, m, Penetration length, 1
#COLUMNINFO= 2, MPa, Cone resistance, 2
#COLUMNINFO= 3, MPa, Sleeve friction, 3
#COLUMNINFO= 4, %, Friction ratio, 4
#COLUMNINFO= 5, MPa, Pore pressure u2, 6
#COLUMNINFO= 6, degrees, Inclination, 8
#XYID= 31000, 155021.68, 462872.83, 0.02, 0.02
#ZID= 31000, 3.38, 0.02
#TESTID= CPT-2024-004
#STARTDATE= 2024, 9, 16
#STARTTIME= 8, 0, 0
#MEASUREMENTTEXT= 1, CPT-2024-004
#MEASUREMENTTEXT= 2, Site Investigation
#MEASUREMENTTEXT= 4, Geotechnical Engineering B.V.
#MEASUREMENTTEXT= 6, Fugro CPT Rig Model F200
#MEASUREMENTTEXT= 9, Electronic cone type E
#MEASUREMENTVAR= 1, 20.00, m, Cone penetration depth
#MEASUREMENTVAR= 2, 2.00, cm/s, Cone penetration rate
#MEASUREMENTVAR= 4, 0.00, m, Cone pre-excavated depth
#MEASUREMENTVAR= 5, 3.38, m, Ground level reference
#MEASUREMENTVAR= 6, 3.38, m, Ground water level
#MEASUREMENTVAR= 9, 0.00, m, Final depth
#MEASUREMENTVAR= 13, 10.00, cm2, Cone surface area
#MEASUREMENTVAR= 16, 0.00, m, Cone apex height
#MEASUREMENTVAR= 20, 90.00, degrees, Cone apex angle
#COLUMNVOID= 1, -9999.99
#COLUMNVOID= 2, -9999.99
#COLUMNVOID= 3, -9999.99
#COLUMNVOID= 4, -9999.99
#COLUMNVOID= 5, -9999.99
#COLUMNVOID= 6, -9999.99
#LASTSCAN= 1
#REPORTCODE= GEF-CPT-Report, 1, 1, 2
#EOH=
  0.0000     0.8188   0.032848   4.0116   0.008193   0.5396
  0.0200     1.1484   0.040354   3.5139   0.000000  -1.3996
  0.0400     1.9238   0.083986   4.3656   0.014506  -0.8758
  0.0600     1.9254   0.080912   4.2024   0.000000   1.1140
  0.0800     1.4397   0.060558   4.2062   0.000000  -1.2649
  0.1000     1.7549   0.056213   3.2033   0.011464  -0.0472
  0.1200     1.0955   0.033655   3.0721   0.000000  -0.5988
  0.1400     1.4055   0.049104   3.4937   0.054573   0.2811
  0.1600     2.0886   0.083038   3.9757   0.000000   0.8531
  0.1800     1.6081   0.061900   3.8493   0.000000   0.0377
  0.2000     1.0169   0.053527   5.2635   0.000000   1.3234
  0.2200     1.9935   0.073015   3.6627   0.000000  -0.6083
  0.2400     1.0154   0.040228   3.9618   0.008103  -0.0610
  0.2600     1.1617   0.047589   4.0966   0.000000   0.4646
  0.2800     0.5577   0.023723   4.2539   0.000000  -0.1390
  0.3000     1.6563   0.049188   2.9697   0.019370  -0.4660
  0.3200     1.8734   0.072017   3.8443   0.012015   0.1742
  0.3400     1.7942   0.084429   4.7057   0.000000   0.6285
  0.3600     1.3991   0.062037   4.4340   0.025743  -0.6661
  0.3800     1.8271   0.065989   3.6116   0.008862   0.0516
  0.4000     1.5137   0.065356   4.3176   0.000000  -0.7241
  0.4200     1.9733   0.092833   4.7045   0.000000  -0.6489
  0.4400     1.7717   0.056547   3.1917   0.000000  -0.8020
  0.4600     1.0199   0.042689   4.1856   0.014921  -0.9471
  0.4800     1.4680   0.064157   4.3703   0.006218   0.7477
  0.5000     1.4507   0.061521   4.2409   0.003860   1.3935
  0.5200     1.8325   0.075767   4.1346   0.000000  -0.2142
  0.5400     0.6594   0.021283   3.2275   0.003261  -0.2578
  0.5600     0.6157   0.025901   4.2067   0.011958   0.1032
  0.5800     1.6488   0.076268   4.6256   0.000000  -1.2948
  0.6000     0.8965   0.037151   4.1442   0.005157   1.3606
  0.6200     0.5684   0.032012   5.6319   0.026473  -0.3953
  0.6400     1.1654   0.043667   3.7471   0.000000   1.4998
  0.6600     1.4350   0.069065   4.8128   0.036289   0.9001
  0.6800     2.0496   0.062598   3.0542   0.000000  -0.2613
  0.7000     0.7080   0.024690   3.4875   0.000000  -1.1195
  0.7200     1.5607   0.054577   3.4970   0.000000   0.7344
  0.7400     1.0652   0.045126   4.2364   0.024572  -0.7016
  0.7600     0.8483   0.036717   4.3283   0.000000   0.4744
  0.7800     0.8122   0.032418   3.9915   0.010958   0.2717
  0.8000     1.7223   0.054327   3.1543   0.000000   0.1146
  0.8200     1.1336   0.053648   4.7326   0.037705  -0.0411
  0.8400     1.3786   0.071247   5.1681   0.000000  -0.4098
  0.8600     2.0132   0.084706   4.2076   0.000000   0.5568
  0.8800     1.5408   0.073487   4.7694   0.000000   0.5659
  0.9000     2.0620   0.072591   3.5204   0.000000   1.2551
  0.9200     0.8241   0.036261   4.4000   0.007538   1.4013
  0.9400     0.9616   0.048314   5.0244   0.005536  -1.4337
  0.9600     1.6034   0.056328   3.5129   0.015407  -0.8795
  0.9800     1.6741   0.082564   4.9318   0.013810  -0.3990
  1.0000     2.0338   0.062121   3.0544   0.040729  -0.6473
  1.0200     1.1326   0.046469   4.1028   0.051261   0.6398
  1.0400     1.9580   0.088078   4.4982   0.025098   0.8073
  1.0600     1.2531   0.047620   3.8003   0.028609   1.4422
  1.0800     2.0528   0.093085   4.5346   0.000000   0.8723
  1.1000     1.0166   0.047256   4.6485   0.000000  -0.3235
  1.1200     0.7283   0.021280   2.9220   0.037024   1.2823
  1.1400     0.8195   0.038263   4.6691   0.000000   1.0838
  1.1600     1.4263   0.048825   3.4231   0.072911  -0.4182
  1.1800     1.9782   0.063848   3.2275   0.000000  -0.8881
  1.2000     1.6265   0.052276   3.2140   0.000000   1.4099
  1.2200     1.4213   0.057491   4.0450   0.003193  -0.3443
  1.2400     0.6704   0.021942   3.2731   0.035171   0.9265
  1.2600     0.8665   0.035459   4.0924   0.022293   1.0966
  1.2800     1.4391   0.057627   4.0044   0.000000  -1.2064
  1.3000     1.6626   0.082557   4.9655   0.040888  -1.4057
  1.3200     0.8493   0.028112   3.3100   0.000000  -0.1881
  1.3400     1.0572   0.050255   4.7535   0.000000   0.1222
  1.3600     0.6875   0.020965   3.0496   0.016986  -0.1410
  1.3800     1.2746   0.058680   4.6038   0.010679  -0.9011
  1.4000     1.0103   0.035279   3.4920   0.000000   0.4747
  1.4200     1.2759   0.062551   4.9024   0.004276  -0.6857
  1.4400     1.6997   0.060042   3.5325   0.008842  -0.1909
  1.4600     0.9944   0.038662   3.8880   0.011645  -0.1095
  1.4800     1.2667   0.042343   3.3428   0.000000  -0.2234
  1.5000     1.1921   0.057784   4.8471   0.007165   1.2327
  1.5200     1.2653   0.045083   3.5629   0.043512   0.7768
  1.5400     1.4943   0.057743   3.8642   0.018138   1.0779
  1.5600     0.9123   0.035354   3.8754   0.012627  -0.5867
  1.5800     1.6641   0.076789   4.6144   0.000000  -0.7710
  1.6000     2.1939   0.087767   4.0005   0.013238   0.5566
  1.6200     1.1791   0.053313   4.5216   0.000000   0.7682
  1.6400     1.6423   0.054703   3.3310   0.000000   0.9283
  1.6600     2.0046   0.070606   3.5221   0.019255   0.1470
  1.6800     0.7568   0.026542   3.5071   0.052101  -1.3500
  1.7000     1.6321   0.065580   4.0180   0.037762  -1.0549
  1.7200     1.5847   0.067958   4.2883   0.013945   0.9323
  1.7400     1.5587   0.058651   3.7629   0.033178   1.4113
  1.7600     2.0182   0.094629   4.6887   0.001332  -0.6983
  1.7800     0.8497   0.034074   4.0098   0.007441  -0.0552
  1.8000     1.0961   0.028372   2.5884   0.030689  -0.7704
  1.8200     1.0116   0.035695   3.5287   0.036443   1.4769
  1.8400     1.0781   0.034493   3.1994   0.028073   1.2302
  1.8600     0.7442   0.034325   4.6121   0.025873  -1.0374
  1.8800     1.5801   0.055591   3.5182   0.020185   0.4775
  1.9000     2.0533   0.077928   3.7952   0.009100   1.1004
  1.9200     0.9565   0.030298   3.1678   0.018219  -0.7054
  1.9400     1.5359   0.064759   4.2164   0.000000   0.3035
  1.9600     2.0071   0.073591   3.6665   0.044763   0.3591
  1.9800     2.0573   0.079065   3.8430   0.009415   0.6064
  2.0000     1.2638   0.055552   4.3957   0.033753  -0.3321
  2.0200     1.3552   0.059811   4.4134   0.016616  -1.0321
  2.0400     1.4571   0.044865   3.0791   0.000000  -0.0425
  2.0600     1.9535   0.054529   2.7913   0.023094  -1.2767
  2.0800     1.2303   0.037375   3.0380   0.033914  -0.3392
  2.1000     1.8580   0.086594   4.6606   0.003959   0.4051
  2.1200     2.0440   0.074549   3.6471   0.035379   1.4034
  2.1400     2.1592   0.067845   3.1422   0.016558  -1.3047
  2.1600     2.0986   0.097868   4.6635   0.040035   1.2485
  2.1800     2.0361   0.092223   4.5293   0.014101   1.2713
  2.2000     1.0683   0.033006   3.0897   0.028057   1.4661
  2.2200     1.6847   0.067892   4.0300   0.041696   0.5793
  2.2400     1.8462   0.092051   4.9859   0.012734   1.0675
  2.2600     1.8629   0.078801   4.2300   0.000000  -1.4669
  2.2800     0.9879   0.039142   3.9620   0.033201  -0.5837
  2.3000     1.0098   0.041550   4.1146   0.021964   0.2483
  2.3200     1.3453   0.047817   3.5544   0.050758   0.4467
  2.3400     1.1424   0.041995   3.6760   0.017431  -1.3614
  2.3600     2.2404   0.073065   3.2613   0.057938  -0.3606
  2.3800     0.9742   0.041565   4.2664   0.000000   1.0064
  2.4000     2.0281   0.094606   4.6647   0.039758   1.4182
  2.4200     1.9872   0.093716   4.7160   0.019944   0.0253
  2.4400     1.6972   0.063224   3.7251   0.018370  -0.1851
  2.4600     1.2409   0.042056   3.3891   0.017245  -0.2074
  2.4800     2.1079   0.090928   4.3136   0.035676  -0.4172
  2.5000     1.8807   0.060961   3.2414   0.024130   1.4606
  2.5200     0.8980   0.040480   4.5078   0.015756   0.9824
  2.5400     1.1523   0.050593   4.3905   0.025079  -1.2301
  2.5600     0.8284   0.043893   5.2987   0.050887   1.1161
  2.5800     1.6785   0.057862   3.4472   0.008616   0.4472
  2.6000     1.9530   0.078828   4.0362   0.040018   1.0645
  2.6200     1.4349   0.045781   3.1905   0.001338  -0.2901
  2.6400     1.3338   0.055667   4.1736   0.018703  -0.3183
  2.6600     1.6616   0.081511   4.9056   0.024373  -0.4182
  2.6800     1.2135   0.060109   4.9533   0.030846  -1.3836
  2.7000     0.9335   0.045328   4.8554   0.002397  -0.9776
  2.7200     0.9699   0.035427   3.6525   0.044320  -0.4638
  2.7400     1.5569   0.074799   4.8044   0.033678   0.3910
  2.7600     1.6183   0.061053   3.7728   0.025715   0.5343
  2.7800     1.8669   0.072224   3.8687   0.042378   1.3898
  2.8000     0.7831   0.032139   4.1039   0.018628  -0.1485
  2.8200     1.6295   0.053996   3.3137   0.057270   0.9593
  2.8400     1.1369   0.051080   4.4928   0.004848  -0.7860
  2.8600     0.8136   0.045074   5.5398   0.019086   0.7364
  2.8800     2.1599   0.069139   3.2010   0.036230   0.5700
  2.9000     1.8242   0.053068   2.9092   0.053398  -0.6920
  2.9200     1.2533   0.054587   4.3553   0.040722   0.0734
  2.9400     1.3611   0.049788   3.6579   0.016778   0.9848
  2.9600     2.2610   0.079190   3.5024   0.037109  -0.7015
  2.9800     1.0788   0.043096   3.9949   0.025870  -0.9324
  3.0000    14.6878   0.095035   0.6470   0.046235   0.7832
  3.0200    13.4727   0.194844   1.4462   0.086782   1.3470
  3.0400    14.7210   0.149903   1.0183   0.051512   0.4323
  3.0600    13.2001   0.188373   1.4271   0.006892   0.7909
  3.0800    10.7516   0.118917   1.1060   0.000000   0.6853
  3.1000    14.1655   0.139958   0.9880   0.022578   0.5571
  3.1200    13.4252   0.129721   0.9662   0.027846  -0.9899
  3.1400    14.5734   0.185387   1.2721   0.025567  -0.2020
  3.1600    11.9882   0.154384   1.2878   0.065680  -0.6791
  3.1800     9.1782   0.115327   1.2565   0.000000   1.0675
  3.2000    10.1528   0.052772   0.5198   0.000000   0.3757
  3.2200    14.8253   0.154646   1.0431   0.002788   0.8224
  3.2400    11.0916   0.092238   0.8316   0.044113   1.3671
  3.2600    12.0826   0.164769   1.3637   0.049232   0.0659
  3.2800    12.1172   0.162198   1.3386   0.087357   0.2761
  3.3000     8.6102   0.081283   0.9440   0.163911  -0.9036
  3.3200    14.5463   0.204488   1.4058   0.077931  -0.3283
  3.3400    12.5571   0.143769   1.1449   0.028759  -0.1888
  3.3600    10.7536   0.065661   0.6106   0.025432   0.1799
  3.3800    10.0314   0.064715   0.6451   0.044573   0.8212
  3.4000    12.1041   0.104715   0.8651   0.035182   1.3919
  3.4200    12.9276   0.124240   0.9610   0.009937   0.9382
  3.4400    13.8922   0.167962   1.2090   0.027431   1.1695
  3.4600    11.4281   0.152635   1.3356   0.046173  -1.1328
  3.4800    14.2155   0.181558   1.2772   0.117365  -0.4512
  3.5000    14.0864   0.199935   1.4193   0.063907   0.1464
  3.5200    10.9949   0.092250   0.8390   0.048453  -0.9381
  3.5400    11.4419   0.110621   0.9668   0.014086   0.6847
  3.5600    14.1868   0.102792   0.7246   0.067805   0.3281
  3.5800    10.3793   0.115461   1.1124   0.000000  -0.0300
  3.6000    14.8584   0.111867   0.7529   0.017964   0.7624
  3.6200    15.1177   0.222750   1.4734   0.067901  -1.3610
  3.6400    12.6195   0.185077   1.4666   0.000000   1.1322
  3.6600    10.9410   0.080986   0.7402   0.000000   1.3917
  3.6800    14.9001   0.137131   0.9203   0.000000  -0.6761
  3.7000    13.6615   0.164157   1.2016   0.060503   0.0007
  3.7200    15.4084   0.206426   1.3397   0.000000  -0.5967
  3.7400    11.9007   0.154125   1.2951   0.049162   0.7706
  3.7600     9.0715   0.093608   1.0319   0.075248  -1.4076
  3.7800    11.3307   0.136946   1.2086   0.076503   1.2748
  3.8000    13.6536   0.102856   0.7533   0.000000  -0.7728
  3.8200    14.1019   0.179308   1.2715   0.096697   1.0146
  3.8400     9.0659   0.083813   0.9245   0.078778  -1.0975
  3.8600    11.5945   0.095375   0.8226   0.075608  -0.3091
  3.8800    11.3948   0.115168   1.0107   0.000000  -1.2412
  3.9000     9.8036   0.079631   0.8123   0.006639  -0.7723
  3.9200    14.9229   0.217847   1.4598   0.102882   1.2417
  3.9400    11.9815   0.138004   1.1518   0.000000  -0.3564
  3.9600     9.2916   0.055560   0.5980   0.060878  -0.0515
  3.9800     9.9939   0.091499   0.9156   0.068535  -1.2432
  4.0000    13.1832   0.089655   0.6801   0.075904  -0.2355
  4.0200     8.9918   0.053693   0.5971   0.087380   0.2613
  4.0400    11.0971   0.136654   1.2314   0.024526   0.2428
  4.0600    12.8488   0.145400   1.1316   0.000000  -1.0579
  4.0800    13.9902   0.089532   0.6400   0.052191  -0.5046
  4.1000    10.2915   0.078758   0.7653   0.087010  -0.3415
  4.1200    10.4461   0.110039   1.0534   0.147525   0.4327
  4.1400    13.4842   0.157141   1.1654   0.000000  -1.1894
  4.1600     9.8260   0.103057   1.0488   0.081281   1.0395
  4.1800    10.8973   0.085891   0.7882   0.054431  -0.8215
  4.2000    10.7792   0.080837   0.7499   0.016983  -0.3715
  4.2200    13.8529   0.171296   1.2365   0.000890  -1.4539
  4.2400    13.8187   0.141524   1.0241   0.038733   0.0960
  4.2600     8.8232   0.124723   1.4136   0.053008  -0.6192
  4.2800     9.6276   0.103844   1.0786   0.014959   0.1220
  4.3000    12.1036   0.161141   1.3313   0.162643  -0.0744
  4.3200    10.9858   0.080944   0.7368   0.013465   1.1815
  4.3400    14.0541   0.143606   1.0218   0.078397   1.4035
  4.3600    14.1533   0.130620   0.9229   0.081440   0.5795
  4.3800    10.3696   0.122101   1.1775   0.026737   0.4588
  4.4000    12.8865   0.130880   1.0156   0.003273  -1.0451
  4.4200    11.2319   0.063296   0.5635   0.067843  -0.7826
  4.4400     9.3076   0.110336   1.1854   0.046282  -0.5802
  4.4600    12.9246   0.160356   1.2407   0.080861  -0.3384
  4.4800     9.7513   0.126168   1.2939   0.051758  -0.3930
  4.5000    14.9949   0.214152   1.4282   0.000000  -0.9367
  4.5200    13.5650   0.100923   0.7440   0.000000   0.6736
  4.5400    14.1492   0.208646   1.4746   0.002334   0.4166
  4.5600    11.1115   0.162587   1.4632   0.020027  -1.3560
  4.5800    10.7108   0.091517   0.8544   0.041987   0.0083
  4.6000     9.5521   0.121695   1.2740   0.000000  -0.8087
  4.6200     8.9986   0.055215   0.6136   0.088706  -1.0628
  4.6400    12.0765   0.159493   1.3207   0.117355   0.3398
  4.6600    15.7290   0.202917   1.2901   0.000000  -0.0118
  4.6800    10.6802   0.140280   1.3135   0.100795  -0.9221
  4.7000    10.5952   0.068313   0.6448   0.089843  -1.3524
  4.7200     9.1450   0.086950   0.9508   0.067345  -0.3753
  4.7400    12.1125   0.148606   1.2269   0.037354   1.4127
  4.7600    11.0581   0.138233   1.2501   0.029699  -1.2900
  4.7800    11.8503   0.064865   0.5474   0.141688  -0.3083
  4.8000    10.4345   0.117804   1.1290   0.099298   1.1770
  4.8200    14.2400   0.150688   1.0582   0.114793  -0.5820
  4.8400    10.1320   0.126135   1.2449   0.122625   0.6861
  4.8600    14.3014   0.213905   1.4957   0.000000   0.6728
  4.8800     9.5546   0.066805   0.6992   0.010744  -0.1485
  4.9000    14.4645   0.179662   1.2421   0.114975  -0.6849
  4.9200    13.4267   0.111440   0.8300   0.038101  -0.6010
  4.9400    12.6398   0.126813   1.0033   0.063639   1.4153
  4.9600    12.5635   0.145310   1.1566   0.065194  -0.8450
  4.9800     9.4314   0.066368   0.7037   0.052056   0.2159
  5.0000     9.3299   0.087449   0.9373   0.000000   1.1690
  5.0200    10.1701   0.104622   1.0287   0.023699   0.2818
  5.0400    15.6978   0.108141   0.6889   0.000000   1.4560
  5.0600    11.4650   0.076935   0.6710   0.000000   1.2774
  5.0800    14.5359   0.168468   1.1590   0.000000  -1.1709
  5.1000     9.6315   0.096832   1.0054   0.024678  -0.5630
  5.1200     9.4967   0.055451   0.5839   0.028349   0.8989
  5.1400    11.6583   0.073364   0.6293   0.000000   0.2313
  5.1600    11.4961   0.129633   1.1276   0.046745  -1.0508
  5.1800     9.4548   0.097094   1.0269   0.072126  -0.5153
  5.2000     9.8238   0.096052   0.9778   0.000000  -0.5945
  5.2200    12.2134   0.167335   1.3701   0.002627   0.7014
  5.2400    11.3169   0.097519   0.8617   0.082179  -0.6453
  5.2600    10.5639   0.097487   0.9228   0.032617   0.4971
  5.2800     9.8247   0.088002   0.8957   0.000000  -0.1092
  5.3000    15.8142   0.132294   0.8366   0.011733   0.5590
  5.3200     9.4592   0.095402   1.0086   0.087443  -1.1365
  5.3400    15.2454   0.145992   0.9576   0.024848   1.0127
  5.3600    14.5622   0.134474   0.9234   0.100142  -0.5171
  5.3800    13.8945   0.127249   0.9158   0.066963   0.6602
  5.4000     9.9495   0.050403   0.5066   0.065922   1.2419
  5.4200    14.9436   0.217917   1.4583   0.067334   0.5667
  5.4400    15.4737   0.165216   1.0677   0.000000  -0.6315
  5.4600     9.7117   0.085112   0.8764   0.159386   0.5850
  5.4800    13.1446   0.094755   0.7209   0.000000   1.3545
  5.5000    11.4122   0.117722   1.0315   0.051120  -0.9847
  5.5200    10.1545   0.098479   0.9698   0.042731   1.3189
  5.5400    12.8088   0.168539   1.3158   0.158999  -1.0962
  5.5600    16.2777   0.226523   1.3916   0.026964  -1.1538
  5.5800    13.9968   0.107960   0.7713   0.052295   0.6682
  5.6000    14.9592   0.170128   1.1373   0.114145   0.0545
  5.6200    12.0909   0.123064   1.0178   0.035343   0.2028
  5.6400    13.5720   0.176195   1.2982   0.000000   1.1451
  5.6600     9.6021   0.049120   0.5116   0.066230   0.5472
  5.6800    15.4613   0.088173   0.5703   0.141417  -1.1971
  5.7000     9.5993   0.093635   0.9754   0.100157  -0.2884
  5.7200    14.3798   0.101889   0.7086   0.114554   0.5902
  5.7400    14.9292   0.102667   0.6877   0.003036  -0.1177
  5.7600    10.1139   0.060596   0.5991   0.064078  -0.7919
  5.7800    15.3711   0.141579   0.9211   0.017551   0.9540
  5.8000    15.9888   0.137601   0.8606   0.000000  -1.0884
  5.8200     9.8857   0.123009   1.2443   0.152570  -0.9937
  5.8400    12.0519   0.072039   0.5977   0.000000  -0.9045
  5.8600    14.2351   0.181232   1.2731   0.000000  -0.3380
  5.8800    10.3308   0.098598   0.9544   0.048200  -0.1835
  5.9000    11.5396   0.077432   0.6710   0.136306   0.0176
  5.9200    16.3540   0.171436   1.0483   0.006361  -0.6665
  5.9400    10.9960   0.143399   1.3041   0.000995   0.8465
  5.9600    10.7929   0.105301   0.9756   0.083506  -1.1422
  5.9800    11.6824   0.084071   0.7196   0.095078   0.8908
  6.0000    11.0475   0.097871   0.8859   0.113920  -0.7357
  6.0200    15.2116   0.155793   1.0242   0.022138  -1.1725
  6.0400    13.6095   0.134994   0.9919   0.049112  -0.6437
  6.0600    12.4579   0.113239   0.9090   0.010976   0.9340
  6.0800    15.8291   0.109722   0.6932   0.065491   0.4925
  6.1000    13.6113   0.101171   0.7433   0.103578  -0.0802
  6.1200    13.5199   0.186089   1.3764   0.103663  -1.3198
  6.1400    12.5265   0.071715   0.5725   0.051334  -0.6169
  6.1600    11.8433   0.124741   1.0533   0.070480  -0.1733
  6.1800    14.2684   0.094093   0.6595   0.015335   1.1347
