#GEFID= 1, 1, 2
#FILEOWNER= Geotechnical Engineering B.V.
#FILEDATE= 2024, 9, 15
#PROJECTID= 2024-001, Site Investigation Project
#COLUMN= 6
#COLUMNINFO= 1, m, Penetration length, 1
#COLUMNINFO= 2, MPa, Cone resistance, 2
#COLUMNINFO= 3, MPa, Sleeve friction, 3
#COLUMNINFO= 4, %, Friction ratio, 4
#COLUMNINFO= 5, MPa, Pore pressure u2, 6
#COLUMNINFO= 6, degrees, Inclination, 8
#XYID= 31000, 154923.04, 462880.75, 0.02, 0.02
#ZID= 31000, 2.03, 0.02
#TESTID= CPT-2024-002
#STARTDATE= 2024, 9, 15
#STARTTIME= 14, 0, 0
#MEASUREMENTTEXT= 1, CPT-2024-002
#MEASUREMENTTEXT= 2, Site Investigation
#MEASUREMENTTEXT= 4, Geotechnical Engineering B.V.
#MEASUREMENTTEXT= 6, Fugro CPT Rig Model F200
#MEASUREMENTTEXT= 9, Electronic cone type E
#MEASUREMENTVAR= 1, 20.00, m, Cone penetration depth
#MEASUREMENTVAR= 2, 2.00, cm/s, Cone penetration rate
#MEASUREMENTVAR= 4, 0.00, m, Cone pre-excavated depth
#MEASUREMENTVAR= 5, 2.03, m, Ground level reference
#MEASUREMENTVAR= 6, 2.03, m, Ground water level
#MEASUREMENTVAR= 9, 0.00, m, Final depth
#MEASUREMENTVAR= 13, 10.00, cm2, Cone surface area
#MEASUREMENTVAR= 16, 0.00, m, Cone apex height
#MEASUREMENTVAR= 20, 90.00, degrees, Cone apex angle
#COLUMNVOID= 1, -9999.99
#COLUMNVOID= 2, -9999.99
#COLUMNVOID= 3, -9999.99
#COLUMNVOID= 4, -9999.99
#COLUMNVOID= 5, -9999.99
#COLUMNVOID= 6, -9999.99
#LASTSCAN= 1
#REPORTCODE= GEF-CPT-Report, 1, 1, 2
#EOH=
  0.0000     1.2402   0.035062   2.8272   0.015373   0.1240
  0.0200     1.1557   0.055291   4.7843   0.000000   0.2431
  0.0400     1.6304   0.059203   3.6312   0.000000  -0.2052
  0.0600     0.7950   0.034327   4.3180   0.000000   0.8042
  0.0800     1.0584   0.039638   3.7449   0.000000   0.0850
  0.1000     0.9863   0.031593   3.2032   0.000000  -1.0995
  0.1200     0.7327   0.026203   3.5764   0.000000   0.6895
  0.1400     0.7171   0.024269   3.3842   0.000000   0.7088
  0.1600     1.3617   0.062687   4.6035   0.006730   1.2931
  0.1800     1.4300   0.048661   3.4029   0.026257  -0.3474
  0.2000     1.1265   0.049860   4.4260   0.000000   0.3542
  0.2200     1.1921   0.060651   5.0876   0.032106   0.9516
  0.2400     0.8718   0.026686   3.0610   0.001668   0.0521
  0.2600     1.4610   0.061927   4.2388   0.000000   0.5534
  0.2800     0.9922   0.037987   3.8286   0.026273   1.4708
  0.3000     0.6208   0.026932   4.3386   0.000000   0.2171
  0.3200     0.7516   0.036416   4.8452   0.033299   0.9382
  0.3400     0.5884   0.024647   4.1892   0.000000  -1.3671
  0.3600     0.8689   0.031887   3.6696   0.000000  -0.6179
  0.3800     0.5451   0.020796   3.8148   0.000000  -1.3881
  0.4000     0.4387   0.020624   4.7012   0.000000   0.0464
  0.4200     1.0037   0.030015   2.9904   0.001708  -1.3760
  0.4400     0.7834   0.029371   3.7489   0.000000  -0.0390
  0.4600     1.6857   0.059740   3.5440   0.034028  -0.3979
  0.4800     1.6539   0.061007   3.6886   0.000000  -1.3902
  0.5000     0.7005   0.023254   3.3197   0.000000   0.1312
  0.5200     1.2397   0.061618   4.9705   0.000000   1.0574
  0.5400     1.5047   0.070066   4.6565   0.000574   0.7618
  0.5600     1.2380   0.040869   3.3011   0.041097  -0.9452
  0.5800     1.9616   0.069226   3.5290   0.004476   0.7294
  0.6000     1.1476   0.047302   4.1219   0.025882   1.1418
  0.6200     0.7569   0.032002   4.2279   0.054584   0.9922
  0.6400     1.5528   0.068896   4.4369   0.047172  -0.2475
  0.6600     0.8631   0.033615   3.8948   0.020887  -0.7890
  0.6800     0.8973   0.042865   4.7769   0.007499   0.6565
  0.7000     1.7138   0.051975   3.0327   0.040847   0.2023
  0.7200     1.3606   0.056503   4.1529   0.010284  -0.4390
  0.7400     1.6478   0.053796   3.2648   0.000000  -0.2554
  0.7600     0.7273   0.017959   2.4695   0.004228   0.4056
  0.7800     1.2889   0.064661   5.0169   0.012801  -0.9377
  0.8000     1.3344   0.055829   4.1837   0.035029   0.8696
  0.8200     1.0617   0.038372   3.6141   0.015946   0.0201
  0.8400     1.0692   0.031902   2.9837   0.000000  -1.4320
  0.8600     1.9538   0.076898   3.9357   0.000000  -1.4889
  0.8800     1.9114   0.060475   3.1639   0.019823  -0.1348
  0.9000     1.2381   0.042391   3.4240   0.000000   1.4695
  0.9200     0.9719   0.034985   3.5998   0.046096   0.5986
  0.9400     1.5821   0.043322   2.7383   0.000485   0.4215
  0.9600     1.0610   0.048763   4.5960   0.006190  -0.6177
  0.9800     1.2736   0.050337   3.9523   0.002246  -0.8585
  1.0000     1.5267   0.069600   4.5588   0.000000   0.0793
  1.0200     1.9078   0.070464   3.6935   0.000000  -0.2016
  1.0400     1.9500   0.098185   5.0351   0.000000   0.8829
  1.0600     1.4746   0.071598   4.8553   0.000000   1.1214
  1.0800     1.4012   0.068125   4.8621   0.028019  -0.5958
  1.1000     0.8940   0.028947   3.2378   0.000984   1.1208
  1.1200     1.5551   0.076225   4.9017   0.022107   0.3348
  1.1400     0.7190   0.036384   5.0604   0.007032   0.6518
  1.1600     0.6634   0.027364   4.1251   0.000000  -1.1771
  1.1800     1.3837   0.063144   4.5634   0.064335  -0.1585
  1.2000     1.4177   0.058300   4.1124   0.010624   0.4537
  1.2200     1.8354   0.063126   3.4394   0.000000   1.4639
  1.2400     2.0855   0.089715   4.3018   0.006778   0.0545
  1.2600     1.4894   0.073459   4.9321   0.010662   1.3993
  1.2800     1.6493   0.073087   4.4315   0.013318   0.9697
  1.3000     0.9371   0.025018   2.6697   0.034243  -0.9702
  1.3200     1.6621   0.072638   4.3703   0.025820  -1.0895
  1.3400     0.7591   0.033037   4.3524   0.021815   0.0351
  1.3600     1.2246   0.061402   5.0140   0.000000  -1.4727
  1.3800     1.6229   0.059211   3.6485   0.015527  -0.5441
  1.4000     0.9287   0.040433   4.3539   0.023703  -0.5306
  1.4200     1.3212   0.054440   4.1207   0.018785   0.3602
  1.4400     2.0988   0.102448   4.8813   0.012821   0.1084
  1.4600     1.9232   0.077308   4.0197   0.005410   0.0799
  1.4800     2.0047   0.069166   3.4502   0.000000   0.9900
  1.5000     1.3199   0.056892   4.3102   0.035570   0.9972
  1.5200     1.6990   0.059697   3.5138   0.040408  -0.0569
  1.5400     1.3452   0.058698   4.3633   0.036699  -0.4999
  1.5600     1.1391   0.043843   3.8488   0.000000  -1.4766
  1.5800     0.8369   0.027638   3.3026   0.000000   1.0386
  1.6000     1.9415   0.083429   4.2972   0.000000  -1.2591
  1.6200     1.2171   0.048186   3.9592   0.032471  -1.2592
  1.6400     1.1953   0.045200   3.7814   0.000000  -0.9319
  1.6600     2.1472   0.091484   4.2606   0.004683   0.5752
  1.6800     2.0535   0.098255   4.7846   0.000000   1.3569
  1.7000     1.0013   0.034724   3.4680   0.020363  -0.9281
  1.7200     1.1814   0.045470   3.8488   0.015093  -0.6667
  1.7400     0.5963   0.026091   4.3753   0.013235  -1.0109
  1.7600     0.9835   0.036022   3.6626   0.025770   0.3561
  1.7800     1.2440   0.049953   4.0155   0.018331  -0.5439
  1.8000     1.2331   0.051154   4.1484   0.032971  -1.1178
  1.8200     1.5558   0.062335   4.0066   0.028334  -0.9234
  1.8400     1.1092   0.050399   4.5438   0.000000  -0.8235
  1.8600     1.9628   0.080363   4.0942   0.000000   0.3328
  1.8800     1.4325   0.053754   3.7524   0.000000   1.4967
  1.9000     1.2547   0.058156   4.6349   0.035416   1.2876
  1.9200     1.1885   0.039293   3.3061   0.009335   0.2627
  1.9400     1.7178   0.066895   3.8942   0.000000   1.2598
  1.9600     1.6414   0.068085   4.1480   0.016762   0.5953
  1.9800     0.6056   0.026151   4.3181   0.062567  -0.1443
  2.0000     0.6146   0.032749   5.3281   0.049505   0.4026
  2.0200     1.5323   0.058453   3.8146   0.055471   1.0184
  2.0400     1.7793   0.077607   4.3616   0.006823   0.8085
  2.0600     1.8999   0.069138   3.6390   0.010369   1.0609
  2.0800     2.0469   0.079184   3.8684   0.036546   0.0512
  2.1000     1.1152   0.055300   4.9589   0.025500  -1.3097
  2.1200     1.0202   0.040353   3.9554   0.000000   0.1743
  2.1400     1.6370   0.080503   4.9178   0.019980   0.7127
  2.1600     1.3823   0.065108   4.7103   0.007127  -0.6598
  2.1800     1.8998   0.088288   4.6473   0.044011   0.4442
  2.2000     1.1205   0.048205   4.3023   0.034070   0.7613
  2.2200     2.2715   0.088723   3.9059   0.020083  -0.5605
  2.2400     0.8002   0.039592   4.9478   0.022890  -1.0996
  2.2600     2.1931   0.090527   4.1278   0.056614  -0.9858
  2.2800     1.8972   0.087013   4.5864   0.000000  -0.6926
  2.3000     1.4392   0.057241   3.9772   0.001291   0.5701
  2.3200     1.5452   0.048273   3.1240   0.023881   0.6614
  2.3400     2.0338   0.093309   4.5880   0.042696  -0.1043
  2.3600     1.2143   0.049359   4.0648   0.027991  -0.4208
  2.3800     1.7796   0.059482   3.3425   0.016089   1.2451
  2.4000     1.0862   0.033674   3.1001   0.008340  -1.4009
  2.4200     1.0121   0.047832   4.7261   0.027157  -0.5091
  2.4400     2.0146   0.090044   4.4695   0.019472   1.2143
  2.4600     1.1556   0.059621   5.1594   0.009889  -0.5126
  2.4800     0.8281   0.024541   2.9636   0.011635  -0.0943
  2.5000     1.8910   0.062013   3.2794   0.017221   0.4749
  2.5200     1.8517   0.071605   3.8671   0.029432  -1.0526
  2.5400     1.0068   0.050011   4.9676   0.018455  -0.7749
  2.5600     1.3833   0.063330   4.5781   0.029468  -1.1409
  2.5800     0.9501   0.031615   3.3277   0.047660  -0.1872
  2.6000     0.9420   0.043909   4.6614   0.015791  -0.4599
  2.6200     1.2059   0.053302   4.4200   0.065563   0.0465
  2.6400     1.2019   0.051875   4.3162   0.038561   0.4475
  2.6600     2.1976   0.105956   4.8215   0.047912  -0.4305
  2.6800     2.0839   0.068062   3.2661   0.005898   1.2105
  2.7000     1.6298   0.080658   4.9490   0.019690  -0.6900
  2.7200     1.5833   0.066779   4.2176   0.011378   1.1749
  2.7400     1.2782   0.058894   4.6078   0.015301  -0.0139
  2.7600     1.1182   0.051245   4.5828   0.040774   0.1537
  2.7800     1.1676   0.039442   3.3781   0.026458   0.0191
  2.8000     2.1363   0.089091   4.1703   0.044518  -0.1134
  2.8200     2.0981   0.079435   3.7861   0.001187   0.1149
  2.8400     1.8516   0.067392   3.6397   0.030524   0.2452
  2.8600     0.9260   0.029932   3.2324   0.051658  -0.5653
  2.8800     1.8270   0.077584   4.2465   0.016677  -0.4797
  2.9000     1.9614   0.074824   3.8148   0.020839  -0.9109
  2.9200     1.2008   0.053733   4.4749   0.001990   0.4851
  2.9400     1.3084   0.065577   5.0120   0.042358   1.0405
  2.9600     1.6945   0.064811   3.8249   0.013580  -1.1414
  2.9800     1.9899   0.070407   3.5383   0.023727  -0.5868
  3.0000     9.4282   0.046646   0.4947   0.000000  -1.1592
  3.0200    10.1500   0.092739   0.9137   0.071940  -0.8807
  3.0400    10.7535   0.149096   1.3865   0.000000  -0.6090
  3.0600     8.2532   0.120571   1.4609   0.120221   0.8308
  3.0800    10.6827   0.110026   1.0299   0.053593   0.1336
  3.1000     9.8528   0.061810   0.6273   0.086713   1.2630
  3.1200     9.4567   0.094074   0.9948   0.000000   0.0460
  3.1400    10.6494   0.105748   0.9930   0.028603   1.2279
  3.1600    11.6187   0.074115   0.6379   0.000000   0.4572
  3.1800    12.2067   0.126168   1.0336   0.063133   1.3777
  3.2000    12.7346   0.079417   0.6236   0.000000   0.8035
  3.2200    13.2227   0.150006   1.1345   0.020494  -0.3263
  3.2400    10.2371   0.138328   1.3512   0.006394  -0.7083
  3.2600    12.8400   0.170483   1.3278   0.056201  -0.7512
  3.2800    11.1403   0.152559   1.3694   0.017112   0.7737
  3.3000    13.1691   0.091499   0.6948   0.000000  -0.0077
  3.3200    12.7128   0.183265   1.4416   0.072298   1.4835
  3.3400    15.1509   0.095138   0.6279   0.017949   0.0762
  3.3600     8.5107   0.101623   1.1941   0.000000   1.4928
  3.3800     9.8015   0.068878   0.7027   0.000000   1.4366
  3.4000     9.1419   0.063606   0.6958   0.070349   1.3367
  3.4200    12.8544   0.134215   1.0441   0.014310  -1.0232
  3.4400    11.7532   0.100226   0.8528   0.033510   0.3587
  3.4600    15.1043   0.126736   0.8391   0.008954  -0.9998
  3.4800     8.9913   0.050011   0.5562   0.000000  -0.2757
  3.5000     8.1340   0.069838   0.8586   0.014360   0.2881
  3.5200     8.6932   0.048568   0.5587   0.022875   1.0632
  3.5400    12.5848   0.142986   1.1362   0.021024   0.8202
  3.5600     9.0612   0.124576   1.3748   0.048474   0.9259
  3.5800    12.3769   0.127236   1.0280   0.019989   0.8983
  3.6000    15.1036   0.160768   1.0644   0.042659   1.3233
  3.6200     8.8401   0.118940   1.3455   0.048085   0.3746
  3.6400    13.7181   0.128150   0.9342   0.071443   0.1521
  3.6600    14.3842   0.122161   0.8493   0.000000  -1.2567
  3.6800    10.0268   0.125540   1.2520   0.103427  -0.9443
  3.7000    10.9517   0.154098   1.4071   0.000000   0.8372
  3.7200    14.9314   0.102988   0.6897   0.078322  -0.5315
  3.7400    15.0359   0.117415   0.7809   0.011447   0.7700
  3.7600    10.6855   0.091702   0.8582   0.059857  -1.3473
  3.7800    14.7100   0.135850   0.9235   0.096402   1.2035
  3.8000    14.4172   0.150794   1.0459   0.035980   0.5310
  3.8200    12.1026   0.160747   1.3282   0.141340   0.3416
  3.8400     8.7707   0.057811   0.6591   0.013306   1.1684
  3.8600    15.3610   0.219069   1.4261   0.110486   0.0829
  3.8800    10.2492   0.104568   1.0203   0.083732   0.2745
  3.9000    10.4577   0.089799   0.8587   0.030445   0.3429
  3.9200    11.1993   0.156817   1.4002   0.000794  -1.4702
  3.9400    10.6968   0.057923   0.5415   0.139108  -0.5891
  3.9600    12.5411   0.160077   1.2764   0.041893   1.4547
  3.9800    15.1695   0.151297   0.9974   0.030429   0.4418
  4.0000    15.4027   0.152751   0.9917   0.058419   1.0547
  4.0200    10.1282   0.136637   1.3491   0.018262  -1.0656
  4.0400    11.5427   0.063901   0.5536   0.000000  -1.3790
  4.0600    11.8799   0.130138   1.0954   0.123169  -1.4793
  4.0800    14.2330   0.182589   1.2829   0.051853  -0.2772
  4.1000    15.1007   0.166998   1.1059   0.026262  -0.9538
  4.1200    13.3604   0.091397   0.6841   0.121534  -1.0121
  4.1400    11.4078   0.151724   1.3300   0.029039  -0.2069
  4.1600    15.4646   0.151039   0.9767   0.000000   1.1369
  4.1800    10.9718   0.113535   1.0348   0.026501  -0.8193
  4.2000    11.4909   0.140288   1.2209   0.000000  -1.1312
  4.2200    13.0984   0.076005   0.5803   0.054326   0.4778
  4.2400     9.3213   0.064079   0.6874   0.123561   1.3326
  4.2600    11.7424   0.169814   1.4462   0.013293  -0.6947
  4.2800     9.9291   0.076693   0.7724   0.049692  -0.9929
  4.3000    14.3430   0.174316   1.2153   0.040440  -0.8145
  4.3200     9.8117   0.138511   1.4117   0.053917   0.9922
  4.3400    15.1832   0.097595   0.6428   0.058526  -0.0893
  4.3600    14.1914   0.129736   0.9142   0.000000  -1.0848
  4.3800    13.2500   0.119321   0.9005   0.101207   0.1159
  4.4000    15.6064   0.114369   0.7328   0.000000   1.2632
  4.4200    15.8112   0.226654   1.4335   0.045535   0.0329
  4.4400    14.6946   0.192282   1.3085   0.043926  -0.3587
  4.4600    14.5848   0.134986   0.9255   0.067159   0.1710
  4.4800     9.7718   0.067446   0.6902   0.009911   0.2669
  4.5000    14.2345   0.123514   0.8677   0.001601   0.3882
  4.5200    11.4454   0.122549   1.0707   0.000000   1.2909
  4.5400    11.9549   0.148057   1.2385   0.000000  -1.4726
  4.5600    10.3338   0.079796   0.7722   0.053003   1.3716
  4.5800    14.5029   0.084444   0.5823   0.012412  -0.2683
  4.6000    13.2390   0.153016   1.1558   0.038032  -0.3690
  4.6200    13.6072   0.067719   0.4977   0.060768   0.3474
  4.6400    11.7505   0.103999   0.8851   0.000000   0.1855
  4.6600    15.1134   0.126242   0.8353   0.040389   0.9333
  4.6800    10.5223   0.055127   0.5239   0.203910  -0.4067
  4.7000     9.0697   0.093198   1.0276   0.057458  -1.3716
  4.7200    12.1735   0.121927   1.0016   0.048407  -0.3721
  4.7400    12.6624   0.099185   0.7833   0.139842   1.3395
  4.7600    15.7162   0.134605   0.8565   0.004148  -1.0257
  4.7800    12.3988   0.143056   1.1538   0.095130  -0.2338
  4.8000    10.3180   0.109051   1.0569   0.047461  -0.1755
  4.8200    14.3964   0.189765   1.3181   0.005238  -0.9751
  4.8400     9.9221   0.114450   1.1535   0.098020   0.8509
  4.8600    11.4975   0.088008   0.7655   0.090385  -1.0527
  4.8800    13.8422   0.134643   0.9727   0.026815  -0.1320
  4.9000    10.6930   0.058323   0.5454   0.055566  -0.8170
  4.9200    15.3733   0.096616   0.6285   0.064066  -1.2115
  4.9400    10.0477   0.134307   1.3367   0.047422  -0.7866
  4.9600    13.2986   0.091453   0.6877   0.009973  -0.0651
  4.9800    11.0789   0.144096   1.3006   0.099309  -0.9251
  5.0000    12.8284   0.120596   0.9401   0.105928   0.4106
  5.0200    14.6730   0.094501   0.6440   0.069854   0.3141
  5.0400    12.8098   0.158173   1.2348   0.000000   0.6334
  5.0600    10.9158   0.063350   0.5803   0.018939  -1.2060
  5.0800     9.2267   0.081447   0.8827   0.057275  -0.5330
  5.1000    12.8612   0.189809   1.4758   0.175406   0.9997
  5.1200    14.7795   0.084185   0.5696   0.000000   0.6667
  5.1400    13.7344   0.122934   0.8951   0.084982  -0.2250
  5.1600    10.2390   0.151508   1.4797   0.061441  -0.5737
  5.1800    10.9191   0.102786   0.9413   0.001859  -0.2406
  5.2000     9.7952   0.071865   0.7337   0.110008   0.8146
  5.2200     9.4123   0.133340   1.4167   0.000662   0.4933
  5.2400     9.9915   0.076793   0.7686   0.048995  -1.4163
  5.2600    10.7693   0.130762   1.2142   0.047506  -0.8165
  5.2800    10.2757   0.143332   1.3949   0.059467   1.2103
  5.3000    14.7597   0.089592   0.6070   0.098483   1.1904
  5.3200    12.5045   0.175554   1.4039   0.043825  -0.2041
  5.3400    12.9077   0.072954   0.5652   0.022265   0.5286
  5.3600    13.3772   0.093880   0.7018   0.057379  -1.4796
  5.3800    10.7640   0.063997   0.5945   0.024452   1.2333
  5.4000    13.1052   0.179964   1.3732   0.000000   0.8677
  5.4200    14.3041   0.078575   0.5493   0.049974  -0.7143
  5.4400    12.9011   0.067934   0.5266   0.000000  -0.6610
  5.4600    14.4576   0.115870   0.8015   0.066098  -1.3974
  5.4800    11.8920   0.167837   1.4113   0.094980   0.7454
  5.5000    13.5885   0.176506   1.2989   0.073177   0.6350
  5.5200    16.2347   0.180594   1.1124   0.073329  -1.3531
  5.5400    14.6752   0.208321   1.4195   0.076351  -1.2178
  5.5600    14.1062   0.099045   0.7021   0.061203  -1.0158
  5.5800    10.3363   0.114610   1.1088   0.119387   1.3180
  5.6000    11.3905   0.075573   0.6635   0.026077   0.7737
  5.6200    11.9151   0.114055   0.9572   0.113663   0.0773
  5.6400    14.7372   0.193089   1.3102   0.054864   0.4064
  5.6600    13.7015   0.142355   1.0390   0.000000  -0.5497
  5.6800    10.5315   0.064203   0.6096   0.000000  -0.9813
  5.7000    10.0609   0.128728   1.2795   0.123316  -0.0546
  5.7200    11.7325   0.078208   0.6666   0.083063  -0.9970
  5.7400    15.1422   0.170803   1.1280   0.043062  -0.4081
  5.7600    12.0215   0.086289   0.7178   0.095463  -0.8133
  5.7800    11.6150   0.171525   1.4768   0.050952  -0.5174
  5.8000    12.2936   0.090073   0.7327   0.100711   1.1433
  5.8200    16.0694   0.138875   0.8642   0.045497  -0.8545
  5.8400    10.9621   0.150445   1.3724   0.043452  -1.4598
  5.8600    11.2407   0.061144   0.5440   0.003968   0.3965
  5.8800    12.8758   0.175773   1.3651   0.108338   0.0900
  5.9000    10.5775   0.141902   1.3415   0.060332   0.7553
  5.9200    13.6680   0.116937   0.8555   0.011116   0.4175
  5.9400    10.0645   0.052074   0.5174   0.009266   0.1190
  5.9600    10.3846   0.128918   1.2414   0.062326  -1.4998
  5.9800    14.9952   0.141571   0.9441   0.045495  -1.2209
  6.0000    11.4277   0.164511   1.4396   0.079011   1.3842
  6.0200    12.1122   0.081544   0.6732   0.043246  -1.0548
  6.0400    13.4304   0.173265   1.2901   0.061970  -0.6965
  6.0600    10.9508   0.087105   0.7954   0.097495  -0.3599
  6.0800    11.2645   0.161503   1.4337   0.099541   1.1529
  6.1000    16.2968   0.234763   1.4405   0.059990  -0.9537
  6.1200    16.3623   0.147615   0.9022   0.062222   0.5638
  6.1400    10.9649   0.141703   1.2923   0.046629   1.1591
  6.1600    13.3447   0.168510   1.2627   0.031211   0.1390
  6.1800    14.5247   0.202365   1.3932   0.010814  -0.0026
