#GEFID= 1, 1, 2
#FILEOWNER= Geotechnical Engineering B.V.
#FILEDATE= 2024, 9, 16
#PROJECTID= 2024-001, Site Investigation Project
#COLUMN= 6
#COLUMNINFO= 1, m, Penetration length, 1
#COLUMNINFO= 2, MPa, Cone resistance, 2
#COLUMNINFO= 3, MPa, Sleeve friction, 3
#COLUMNINFO= 4, %, Friction ratio, 4
#COLUMNINFO= 5, MPa, Pore pressure u2, 6
#COLUMNINFO= 6, degrees, Inclination, 8
#XYID= 31000, 155074.98, 462874.84, 0.02, 0.02
#ZID= 31000, 2.09, 0.02
#TESTID= CPT-2024-005
#STARTDATE= 2024, 9, 16
#STARTTIME= 8, 0, 0
#MEASUREMENTTEXT= 1, CPT-2024-005
#MEASUREMENTTEXT= 2, Site Investigation
#MEASUREMENTTEXT= 4, Geotechnical Engineering B.V.
#MEASUREMENTTEXT= 6, Fugro CPT Rig Model F200
#MEASUREMENTTEXT= 9, Electronic cone type E
#MEASUREMENTVAR= 1, 20.00, m, Cone penetration depth
#MEASUREMENTVAR= 2, 2.00, cm/s, Cone penetration rate
#MEASUREMENTVAR= 4, 0.00, m, Cone pre-excavated depth
#MEASUREMENTVAR= 5, 2.09, m, Ground level reference
#MEASUREMENTVAR= 6, 2.09, m, Ground water level
#MEASUREMENTVAR= 9, 0.00, m, Final depth
#MEASUREMENTVAR= 13, 10.00, cm2, Cone surface area
#MEASUREMENTVAR= 16, 0.00, m, Cone apex height
#MEASUREMENTVAR= 20, 90.00, degrees, Cone apex angle
#COLUMNVOID= 1, -9999.99
#COLUMNVOID= 2, -9999.99
#COLUMNVOID= 3, -9999.99
#COLUMNVOID= 4, -9999.99
#COLUMNVOID= 5, -9999.99
#COLUMNVOID= 6, -9999.99
#LASTSCAN= 1
#REPORTCODE= GEF-CPT-Report, 1, 1, 2
#EOH=
  0.0000     1.2974   0.039167   3.0189   0.000000   1.3489
  0.0200     2.0091   0.070459   3.5069   0.011493   1.1993
  0.0400     2.1260   0.082132   3.8631   0.000000   0.4353
  0.0600     1.9068   0.066778   3.5021   0.003824   0.2834
  0.0800     2.0381   0.072225   3.5437   0.003240  -0.6934
  0.1000     1.5632   0.057279   3.6643   0.016287  -1.2624
  0.1200     1.4004   0.052758   3.7673   0.010188   0.5787
  0.1400     1.7391   0.067645   3.8896   0.000000   1.1302
  0.1600     0.8408   0.034635   4.1194   0.001108  -0.1427
  0.1800     1.2483   0.058163   4.6595   0.000000  -0.0075
  0.2000     0.6248   0.018909   3.0265   0.000000   1.4052
  0.2200     0.6396   0.031812   4.9740   0.020401  -1.3490
  0.2400     1.7049   0.077354   4.5372   0.049776   0.1056
  0.2600     1.6643   0.047215   2.8368   0.013452   0.5754
  0.2800     1.9918   0.065954   3.3113   0.028666  -0.5554
  0.3000     1.6641   0.062980   3.7845   0.010656   0.5476
  0.3200     1.3944   0.062091   4.4530   0.000000  -0.5340
  0.3400     0.8211   0.035750   4.3537   0.016604   0.9217
  0.3600     1.8047   0.064771   3.5891   0.000000   0.0689
  0.3800     0.7159   0.022591   3.1557   0.003678   0.0334
  0.4000     1.8658   0.076100   4.0788   0.000000   0.0448
  0.4200     1.4426   0.060526   4.1958   0.000000   1.0548
  0.4400     1.8451   0.066115   3.5834   0.027346   0.9111
  0.4600     2.0858   0.069124   3.3139   0.000000  -0.9307
  0.4800     1.4720   0.059423   4.0368   0.017456   0.2877
  0.5000     0.5696   0.032727   5.7454   0.032342  -1.1275
  0.5200     1.6664   0.081418   4.8859   0.016439   1.3325
  0.5400     0.6225   0.017235   2.7689   0.047593   1.1420
  0.5600     1.3832   0.042251   3.0547   0.003809  -0.4205
  0.5800     0.8702   0.033399   3.8381   0.000000   0.9794
  0.6000     1.9603   0.092231   4.7050   0.060499  -0.2444
  0.6200     1.6937   0.058651   3.4629   0.015534  -0.7662
  0.6400     1.0795   0.034825   3.2259   0.008720   1.2375
  0.6600     1.9492   0.085819   4.4028   0.000000  -1.0077
  0.6800     1.0032   0.037956   3.7833   0.003367  -0.9629
  0.7000     2.0132   0.074772   3.7140   0.053005  -0.9348
  0.7200     0.7980   0.023640   2.9623   0.000000  -0.5291
  0.7400     1.5930   0.061817   3.8805   0.026936   0.1937
  0.7600     0.8006   0.035512   4.4357   0.035056  -0.0204
  0.7800     1.9586   0.081123   4.1419   0.003417   0.7589
  0.8000     2.0186   0.077894   3.8589   0.000000   0.5455
  0.8200     1.7908   0.057522   3.2120   0.044868  -0.7238
  0.8400     1.7692   0.055670   3.1465   0.038546  -0.6529
  0.8600     1.1379   0.039662   3.4856   0.000000   0.6276
  0.8800     2.0052   0.093739   4.6747   0.004002  -1.0117
  0.9000     1.3769   0.052654   3.8240   0.020476  -1.0428
  0.9200     1.4258   0.050086   3.5127   0.000000  -0.6842
  0.9400     1.2318   0.048835   3.9646   0.003288   1.1815
  0.9600     1.4915   0.053495   3.5865   0.000000  -1.3097
  0.9800     0.9281   0.032347   3.4854   0.000000  -1.3490
  1.0000     1.0835   0.046069   4.2517   0.000000   0.6095
  1.0200     1.7376   0.087162   5.0161   0.006596  -0.3335
  1.0400     1.5005   0.063981   4.2640   0.039662  -0.8500
  1.0600     1.4219   0.053880   3.7894   0.025266  -1.1036
  1.0800     1.9460   0.093228   4.7907   0.005106  -0.6751
  1.1000     1.7626   0.059766   3.3908   0.015333   0.1617
  1.1200     0.5654   0.033748   5.9688   0.003034  -1.2075
  1.1400     1.0277   0.038848   3.7801   0.003721   0.3430
  1.1600     1.4958   0.069344   4.6358   0.000000   0.8157
  1.1800     1.7418   0.087289   5.0114   0.013503  -0.0071
  1.2000     1.9236   0.056160   2.9195   0.000000   0.9372
  1.2200     0.6289   0.023088   3.6714   0.000000   0.0421
  1.2400     0.7911   0.038727   4.8953   0.012927  -0.7818
  1.2600     1.5283   0.047817   3.1288   0.063478  -0.3642
  1.2800     2.2415   0.068778   3.0684   0.021156   0.6791
  1.3000     1.3130   0.058593   4.4624   0.043833  -0.3030
  1.3200     1.8407   0.084752   4.6042   0.000336   0.4855
  1.3400     1.3234   0.064784   4.8952   0.000000   1.1307
  1.3600     1.2140   0.053409   4.3995   0.006643  -0.3546
  1.3800     0.6984   0.026665   3.8179   0.038126   1.0260
  1.4000     1.3268   0.059597   4.4918   0.021503   0.0682
  1.4200     1.7152   0.055228   3.2200   0.000097   0.4671
  1.4400     1.0761   0.033373   3.1012   0.003591  -0.2841
  1.4600     1.5277   0.065338   4.2768   0.034756   1.0046
  1.4800     1.0228   0.030303   2.9627   0.042362   0.9655
  1.5000     1.0406   0.036175   3.4764   0.019886  -1.2318
  1.5200     0.5885   0.026198   4.4517   0.015586   0.3324
  1.5400     1.5930   0.063618   3.9936   0.027122  -0.4421
  1.5600     1.7228   0.067899   3.9411   0.000000   0.6726
  1.5800     0.7384   0.029968   4.0588   0.033629  -0.1825
  1.6000     1.6546   0.067698   4.0916   0.022719  -0.3386
  1.6200     2.1858   0.079088   3.6182   0.017480   0.8519
  1.6400     1.1127   0.043475   3.9071   0.027757  -0.2276
  1.6600     2.1176   0.100142   4.7291   0.020338  -0.8219
  1.6800     0.9658   0.044106   4.5668   0.011846  -0.0680
  1.7000     0.5710   0.032433   5.6805   0.033012   0.3018
  1.7200     1.9932   0.099654   4.9998   0.059422  -0.7245
  1.7400     2.1350   0.064748   3.0326   0.038781  -1.1323
  1.7600     0.4804   0.032240   6.7115   0.011082  -1.0372
  1.7800     0.7968   0.027629   3.4675   0.007710   1.4982
  1.8000     2.0587   0.097917   4.7563   0.007806  -0.8470
  1.8200     0.9560   0.036068   3.7728   0.038772   0.8711
  1.8400     1.6079   0.064722   4.0252   0.030808   0.3593
  1.8600     0.9346   0.038215   4.0888   0.000000  -1.2165
  1.8800     1.4560   0.051607   3.5443   0.000000  -0.2600
  1.9000     1.1063   0.034635   3.1307   0.000000   0.3691
  1.9200     0.8478   0.040662   4.7959   0.021627  -1.1658
  1.9400     2.1211   0.069149   3.2600   0.000000   0.1549
  1.9600     0.8201   0.034642   4.2240   0.025295  -1.3191
  1.9800     1.5301   0.068847   4.4996   0.063652  -1.2927
  2.0000     0.8661   0.044384   5.1243   0.000000  -0.1352
  2.0200     1.0260   0.045861   4.4700   0.070514  -1.1527
  2.0400     1.1680   0.066346   5.6804   0.014256  -0.9809
  2.0600     1.5292   0.063038   4.1222   0.005612  -0.1362
  2.0800     1.3518   0.062031   4.5887   0.028617  -0.6079
  2.1000     1.2708   0.053720   4.2272   0.049222   0.4245
  2.1200     1.0269   0.046467   4.5252   0.057287  -0.0717
  2.1400     1.5862   0.067956   4.2843   0.023463   0.1423
  2.1600     2.0109   0.071701   3.5655   0.019150   1.0693
  2.1800     0.7543   0.025133   3.3320   0.023864  -1.3995
  2.2000     0.9765   0.028122   2.8800   0.004295  -0.2343
  2.2200     1.6109   0.064051   3.9761   0.007138  -0.4098
  2.2400     1.4689   0.042864   2.9181   0.040999   1.1288
  2.2600     2.2319   0.076002   3.4053   0.036624   0.0932
  2.2800     2.0524   0.055743   2.7160   0.026042  -0.6492
  2.3000     0.8629   0.036800   4.2647   0.000000   0.0202
  2.3200     2.1034   0.091392   4.3449   0.021854  -1.3864
  2.3400     2.1811   0.077409   3.5491   0.022728   1.0566
  2.3600     2.0907   0.087191   4.1705   0.046448   0.8789
  2.3800     2.0182   0.085542   4.2384   0.000000  -0.1245
  2.4000     2.0389   0.063991   3.1386   0.059787  -1.2572
  2.4200     1.4784   0.063362   4.2860   0.019970   0.6360
  2.4400     0.8894   0.029672   3.3363   0.057315  -0.4673
  2.4600     1.0270   0.050641   4.9311   0.031445  -1.2739
  2.4800     1.8385   0.063185   3.4367   0.034684   0.8611
  2.5000     2.0496   0.073672   3.5945   0.037820  -0.2285
  2.5200     0.7932   0.038189   4.8148   0.038514  -0.2177
  2.5400     2.0625   0.065509   3.1762   0.024624   0.7604
  2.5600     1.8188   0.084289   4.6344   0.022265   0.3778
  2.5800     1.1817   0.039243   3.3210   0.041725   0.6600
  2.6000     1.6805   0.074204   4.4157   0.056282  -1.1362
  2.6200     1.3610   0.059460   4.3689   0.000000  -1.4385
  2.6400     1.6679   0.091971   5.5141   0.056715  -1.0630
  2.6600     1.3553   0.048313   3.5647   0.033978  -1.0781
  2.6800     1.7643   0.072824   4.1278   0.021518  -0.8224
  2.7000     2.0454   0.092155   4.5055   0.007379   0.8842
  2.7200     1.1063   0.039040   3.5287   0.010954   0.7619
  2.7400     2.1231   0.078206   3.6837   0.058823   0.6079
  2.7600     1.1458   0.055867   4.8756   0.006759  -0.9839
  2.7800     1.6658   0.085344   5.1232   0.012951  -0.4346
  2.8000     1.8407   0.084521   4.5919   0.026054   1.1892
  2.8200     1.1322   0.040579   3.5841   0.010889  -0.7535
  2.8400     1.1035   0.053836   4.8788   0.069560  -0.7424
  2.8600     1.3291   0.052886   3.9792   0.028881  -1.1559
  2.8800     2.1851   0.068359   3.1284   0.017855  -0.0898
  2.9000     0.8492   0.042622   5.0191   0.012099  -0.9961
  2.9200     1.3933   0.045433   3.2607   0.014462  -1.2171
  2.9400     1.6613   0.060735   3.6559   0.047811  -1.4715
  2.9600     1.3754   0.041315   3.0039   0.066994  -1.2779
  2.9800     1.7772   0.056450   3.1764   0.034077   0.1224
  3.0000    14.1867   0.093571   0.6596   0.000000  -0.6758
  3.0200     9.5341   0.077455   0.8124   0.000000   0.5201
  3.0400    14.1941   0.168427   1.1866   0.114958   1.4149
  3.0600    13.6060   0.089118   0.6550   0.000000  -1.3251
  3.0800    12.8872   0.157200   1.2198   0.011279  -1.0779
  3.1000    12.8112   0.172297   1.3449   0.046966  -0.1758
  3.1200    11.3055   0.160429   1.4190   0.086403   0.4226
  3.1400    10.2164   0.085886   0.8407   0.013597   1.0450
  3.1600    10.2871   0.118676   1.1536   0.000000   0.7360
  3.1800    11.1108   0.143875   1.2949   0.000000  -1.2227
  3.2000    11.6418   0.157676   1.3544   0.071642  -0.5620
  3.2200    10.4380   0.148849   1.4260   0.056090  -0.2372
  3.2400    14.6477   0.144687   0.9878   0.048698  -0.1309
  3.2600     8.6729   0.084133   0.9701   0.037654  -1.1216
  3.2800     8.9328   0.065747   0.7360   0.000000  -1.4859
  3.3000    10.1886   0.117029   1.1486   0.076333  -0.5627
  3.3200     9.7190   0.114774   1.1809   0.096737   0.1828
  3.3400    10.8547   0.089301   0.8227   0.000000   0.5165
  3.3600    10.0201   0.065168   0.6504   0.048442  -0.6332
  3.3800    15.1899   0.148866   0.9800   0.056483  -1.3009
  3.4000    12.6011   0.166498   1.3213   0.000000   1.4225
  3.4200    10.7719   0.103269   0.9587   0.099799  -1.0057
  3.4400    10.4180   0.113352   1.0880   0.076099  -0.1991
  3.4600    13.3839   0.147111   1.0992   0.059950  -1.4907
  3.4800     9.9121   0.094882   0.9572   0.034442  -0.3881
  3.5000    12.4427   0.171453   1.3779   0.043158   1.1344
  3.5200    10.0091   0.060124   0.6007   0.010256   1.4799
  3.5400    10.4267   0.081788   0.7844   0.086281   0.1338
  3.5600    15.0411   0.125247   0.8327   0.011924   0.8938
  3.5800    11.7535   0.121534   1.0340   0.002452   0.0886
  3.6000     9.0193   0.049860   0.5528   0.091790   0.0731
  3.6200     8.8910   0.119063   1.3391   0.000000   1.3840
  3.6400    15.3664   0.094047   0.6120   0.000000   0.7767
  3.6600    10.9544   0.065128   0.5945   0.025253   0.7485
  3.6800    12.4930   0.143615   1.1496   0.077538  -0.8437
  3.7000     9.5670   0.085583   0.8946   0.039966   0.5613
  3.7200    10.5423   0.101750   0.9652   0.018654   0.0193
  3.7400    10.7897   0.145798   1.3513   0.046553   0.1783
  3.7600    15.2745   0.225754   1.4780   0.080280  -0.8555
  3.7800     8.6346   0.063757   0.7384   0.015362   0.2788
  3.8000    14.6845   0.095220   0.6484   0.032592   0.4953
  3.8200    11.8714   0.104038   0.8764   0.013151  -0.5150
  3.8400    10.8343   0.146404   1.3513   0.000000  -1.4689
  3.8600    15.2341   0.081628   0.5358   0.136505  -0.9960
  3.8800    10.4780   0.078672   0.7508   0.022470  -0.8522
  3.9000    13.7195   0.187543   1.3670   0.034749  -0.0307
  3.9200    12.0710   0.120288   0.9965   0.011450   1.2520
  3.9400     9.3903   0.079873   0.8506   0.029300   1.1219
  3.9600    14.8346   0.155689   1.0495   0.138800  -0.6059
  3.9800     9.6129   0.119930   1.2476   0.021993   0.2523
  4.0000    15.0134   0.098509   0.6561   0.025116   1.4578
  4.0200    15.2134   0.160695   1.0563   0.083558  -0.9712
  4.0400    11.3493   0.091768   0.8086   0.075640  -1.3641
  4.0600    13.2340   0.083029   0.6274   0.037579  -0.2647
  4.0800    14.5649   0.082727   0.5680   0.003732   1.1577
  4.1000     9.1459   0.069503   0.7599   0.107856   1.2167
  4.1200     9.9805   0.056063   0.5617   0.014561  -0.4979
  4.1400    11.8366   0.086332   0.7294   0.038262   0.7420
  4.1600     9.7321   0.121048   1.2438   0.029836  -0.2852
  4.1800    12.6981   0.107080   0.8433   0.085243   0.3259
  4.2000    10.8435   0.152778   1.4089   0.000000  -0.5374
  4.2200    14.0962   0.148028   1.0501   0.000000   0.3598
  4.2400    14.0425   0.186494   1.3281   0.046779  -0.6602
  4.2600    12.1181   0.070253   0.5797   0.042126   0.7407
  4.2800     9.7764   0.135674   1.3878   0.082578   0.7536
  4.3000    10.7461   0.066383   0.6177   0.059890   0.6438
  4.3200     9.9278   0.127295   1.2822   0.000000   0.3378
  4.3400    11.5651   0.062782   0.5429   0.041416   0.1034
  4.3600    12.5788   0.085980   0.6835   0.066743   0.1665
  4.3800    10.3790   0.134427   1.2952   0.012076  -0.8911
  4.4000     9.7793   0.091339   0.9340   0.000000  -0.4918
  4.4200    12.1069   0.143601   1.1861   0.071676  -0.0722
  4.4400    10.0515   0.122268   1.2164   0.028401   0.3456
  4.4600    12.9065   0.143746   1.1137   0.035503  -0.5655
  4.4800    14.6119   0.076568   0.5240   0.022593   0.6118
  4.5000    10.7437   0.100633   0.9367   0.105038  -0.4722
  4.5200     8.9592   0.123291   1.3761   0.000000  -0.9541
  4.5400    14.4747   0.153959   1.0636   0.000000   0.9018
  4.5600    13.5412   0.077959   0.5757   0.022226   1.4822
  4.5800    15.2865   0.146843   0.9606   0.000000  -0.0201
  4.6000    12.2440   0.063631   0.5197   0.088462   1.2134
  4.6200    15.6434   0.171650   1.0973   0.046880  -0.1907
  4.6400    15.3596   0.161018   1.0483   0.082840   0.2610
  4.6600    10.1148   0.107096   1.0588   0.000000   0.0426
  4.6800     9.1208   0.124280   1.3626   0.096579  -0.1365
  4.7000    14.9091   0.145841   0.9782   0.000000  -0.4746
  4.7200     9.6104   0.100900   1.0499   0.000000   1.1272
  4.7400    15.7888   0.229899   1.4561   0.010175  -0.6529
  4.7600    14.2632   0.162062   1.1362   0.048793  -0.7027
  4.7800    10.8807   0.150815   1.3861   0.066137   0.7481
  4.8000    15.0080   0.174530   1.1629   0.150967   0.3031
  4.8200    11.4813   0.106127   0.9243   0.000000   0.5899
  4.8400    14.2186   0.096951   0.6819   0.052612   0.4018
  4.8600    15.0258   0.214772   1.4294   0.062741   0.3384
  4.8800    13.9662   0.087800   0.6287   0.099499  -1.1208
  4.9000    11.7909   0.091782   0.7784   0.132813   1.1772
  4.9200    14.1033   0.142313   1.0091   0.000000   0.2559
  4.9400     9.4984   0.049082   0.5167   0.041092   1.4104
  4.9600    14.0118   0.138221   0.9865   0.050968   0.8920
  4.9800    15.2044   0.113491   0.7464   0.065048   0.9485
  5.0000    10.3407   0.113856   1.1010   0.048492   0.1554
  5.0200    15.1971   0.211002   1.3884   0.134098  -1.3768
  5.0400    12.5637   0.078643   0.6260   0.121309   0.5639
  5.0600    11.0032   0.107546   0.9774   0.106011   0.3663
  5.0800    10.0068   0.152659   1.5255   0.053052  -1.2029
  5.1000    14.3043   0.112611   0.7873   0.001927   1.0368
  5.1200    12.2770   0.184308   1.5012   0.079939   1.3573
  5.1400    14.1904   0.096954   0.6832   0.047678   0.5756
  5.1600    13.4486   0.179914   1.3378   0.071238  -0.8878
  5.1800    15.9407   0.107616   0.6751   0.035088   1.4981
  5.2000    13.0306   0.104975   0.8056   0.046901  -0.3404
  5.2200    14.2016   0.213086   1.5004   0.050285  -1.1224
  5.2400    11.1881   0.160668   1.4361   0.000000  -1.3820
  5.2600    14.3301   0.210948   1.4721   0.019172   0.6990
  5.2800     9.2195   0.091548   0.9930   0.004448  -1.3975
  5.3000    13.3935   0.199510   1.4896   0.024341  -1.2544
  5.3200    10.2701   0.093452   0.9099   0.107755  -0.0438
  5.3400    10.9121   0.107151   0.9819   0.136822  -0.0970
  5.3600    14.7756   0.135512   0.9171   0.058787   0.6374
  5.3800    12.4242   0.078135   0.6289   0.007197  -1.4745
  5.4000    11.8412   0.112984   0.9542   0.087077   0.7006
  5.4200    15.8874   0.198521   1.2495   0.000000  -0.6322
  5.4400    12.4037   0.111826   0.9016   0.125653  -0.5302
  5.4600    13.6770   0.205468   1.5023   0.088060   1.3334
  5.4800    12.2033   0.104317   0.8548   0.138844  -0.1238
  5.5000    14.6889   0.126999   0.8646   0.167206  -0.4618
  5.5200    11.3517   0.096462   0.8498   0.053232  -1.3722
  5.5400    10.7797   0.103521   0.9603   0.000000   0.7237
  5.5600    16.4139   0.087357   0.5322   0.000000  -1.0314
  5.5800    11.0548   0.077659   0.7025   0.000000   0.6274
  5.6000    10.0830   0.106585   1.0571   0.069486  -0.4987
  5.6200    14.1560   0.076590   0.5410   0.079859   0.1393
  5.6400    16.1275   0.090503   0.5612   0.021640   0.6215
  5.6600    10.6075   0.157882   1.4884   0.085303  -0.8330
  5.6800    13.6907   0.081264   0.5936   0.000000   0.2313
  5.7000    14.2793   0.211786   1.4832   0.087629  -0.8285
  5.7200    14.2159   0.138215   0.9723   0.034102   0.4525
  5.7400    10.3740   0.080757   0.7785   0.000000  -1.2768
  5.7600    13.1535   0.194231   1.4766   0.000000  -1.0293
  5.7800     9.5711   0.096547   1.0087   0.060186  -0.2939
  5.8000    14.3568   0.166022   1.1564   0.051735   0.1949
  5.8200    13.4127   0.106477   0.7939   0.015695   0.5742
  5.8400    14.3141   0.151129   1.0558   0.000000   0.1561
  5.8600    15.5377   0.224571   1.4453   0.092126   1.2565
  5.8800    13.3118   0.147061   1.1047   0.105304   1.0573
  5.9000    12.1066   0.127617   1.0541   0.014589   0.1195
  5.9200    12.8313   0.187136   1.4584   0.114600   0.9251
  5.9400    10.9316   0.151779   1.3884   0.081116  -1.1540
  5.9600    12.4763   0.130848   1.0488   0.100038  -0.1994
  5.9800    15.2750   0.126750   0.8298   0.077687   0.9996
  6.0000    13.0375   0.182553   1.4002   0.033125   0.6231
  6.0200    12.7236   0.086962   0.6835   0.110810   1.2248
  6.0400     9.8858   0.148596   1.5031   0.091169  -1.4435
  6.0600    11.3517   0.061316   0.5401   0.062832   1.3971
  6.0800    13.3553   0.090411   0.6770   0.116289  -0.4220
  6.1000    12.4434   0.100133   0.8047   0.107193  -0.8854
  6.1200    13.1744   0.124358   0.9439   0.000000   0.6459
  6.1400    11.1604   0.104635   0.9376   0.080276   0.1977
  6.1600    12.6500   0.136961   1.0827   0.120683  -0.2200
  6.1800    14.5027   0.100299   0.6916   0.025720  -1.4683
